# 18O2;(11,0);79K;54962-5297 cm-1;4749 pts
  54962.090     1.350E-21
  54962.160     1.602E-21
  54962.231     1.247E-21
  54962.301     5.938E-22
  54962.371     2.438E-22
  54962.442     4.917E-22
  54962.512     6.403E-22
  54962.582     8.895E-22
  54962.653     5.881E-22
  54962.723     2.879E-22
  54962.793    -1.596E-22
  54962.864    -5.061E-22
  54962.934    -6.056E-22
  54963.004    -9.012E-22
  54963.075    -9.023E-22
  54963.145    -8.054E-22
  54963.216    -8.065E-22
  54963.286    -8.077E-22
  54963.356    -7.597E-22
  54963.427    -5.643E-22
  54963.497    -4.177E-22
  54963.567    -2.214E-22
  54963.638     2.494E-23
  54963.708     6.212E-22
  54963.778     1.172E-21
  54963.849     1.574E-21
  54963.919     1.725E-21
  54963.989     1.522E-21
  54964.060     1.067E-21
  54964.130     2.654E-22
  54964.200    -2.810E-22
  54964.271    -2.327E-22
  54964.341     2.620E-22
  54964.412     8.100E-22
  54964.482     1.160E-21
  54964.552     1.311E-21
  54964.623     1.309E-21
  54964.693     1.460E-21
  54964.763     1.459E-21
  54964.834     7.532E-22
  54964.904    -1.934E-22
  54964.974    -5.400E-22
  54965.045    -2.945E-22
  54965.115     1.238E-24
  54965.185    -2.474E-22
  54965.256    -5.445E-22
  54965.326    -8.404E-22
  54965.396    -1.037E-21
  54965.467    -9.896E-22
  54965.537    -7.947E-22
  54965.608    -5.501E-22
  54965.678     4.181E-23
  54965.748     4.885E-22
  54965.819     6.873E-22
  54965.889     1.377E-22
  54965.959    -1.609E-22
  54966.030     1.852E-22
  54966.100     3.333E-22
  54966.170    -1.570E-23
  54966.241    -6.639E-23
  54966.311     1.806E-22
  54966.381     4.784E-22
  54966.452     5.272E-22
  54966.522     1.077E-21
  54966.593     1.682E-21
  54966.663     1.783E-21
  54966.733     1.427E-21
  54966.804     5.715E-22
  54966.874     7.224E-23
  54966.944    -2.812E-23
  54967.015     3.685E-22
  54967.085     8.674E-22
  54967.155     7.159E-22
  54967.226     6.147E-22
  54967.296     1.151E-22
  54967.367    -4.798E-22
  54967.437    -7.761E-22
  54967.507    -7.773E-22
  54967.578    -6.309E-22
  54967.648    -2.375E-22
  54967.718    -3.375E-22
  54967.789    -9.289E-22
  54967.859    -1.224E-21
  54967.929    -7.349E-22
  54968.000    -4.900E-22
  54968.070    -6.880E-22
  54968.140    -7.874E-22
  54968.211    -5.919E-22
  54968.281    -3.465E-22
  54968.352    -5.071E-23
  54968.422     3.957E-22
  54968.492     3.946E-22
  54968.563     2.440E-22
  54968.633     2.429E-22
  54968.703     1.920E-22
  54968.774    -5.749E-23
  54968.844     9.028E-23
  54968.914     1.388E-22
  54968.985     8.802E-23
  54969.055    -6.201E-23
  54969.126     2.349E-22
  54969.196     2.836E-22
  54969.266     4.820E-22
  54969.337     4.309E-22
  54969.407     1.807E-22
  54969.477     2.293E-22
  54969.548     7.898E-23
  54969.618    -1.701E-22
  54969.688    -1.713E-22
  54969.759     2.592E-23
  54969.829     2.734E-22
  54969.900     7.220E-22
  54969.970     1.224E-21
  54970.040     1.424E-21
  54970.111     8.188E-22
  54970.181     2.180E-22
  54970.251    -6.247E-22
  54970.322    -1.409E-21
  54970.392    -1.751E-21
  54970.463    -1.800E-21
  54970.533    -1.656E-21
  54970.603    -1.121E-21
  54970.674    -7.790E-22
  54970.744    -1.172E-21
  54970.814    -1.222E-21
  54970.885    -1.321E-21
  54970.955    -1.127E-21
  54971.025    -3.412E-22
  54971.096     4.452E-24
  54971.166     1.524E-22
  54971.237     3.007E-22
  54971.307     7.495E-22
  54971.377     7.985E-22
  54971.448     6.470E-22
  54971.518     5.958E-22
  54971.588     6.447E-22
  54971.659     5.435E-22
  54971.729     3.426E-22
  54971.800     4.281E-23
  54971.870    -1.072E-22
  54971.940    -1.083E-22
  54972.011     1.388E-22
  54972.081     4.867E-22
  54972.151     2.361E-22
  54972.222    -1.364E-23
  54972.292     3.490E-23
  54972.362    -1.590E-23
  54972.433    -1.163E-22
  54972.503    -1.816E-23
  54972.574    -2.671E-22
  54972.644    -3.672E-22
  54972.714    -4.671E-22
  54972.785    -7.146E-22
  54972.855    -2.716E-22
  54972.925     2.237E-22
  54972.996     2.359E-23
  54973.066    -3.245E-22
  54973.137    -4.739E-22
  54973.207    -3.268E-22
  54973.277    -3.279E-22
  54973.348     3.665E-22
  54973.418     1.269E-21
  54973.488     1.369E-21
  54973.559     9.141E-22
  54973.629     6.311E-23
  54973.700    -5.815E-22
  54973.770    -1.074E-21
  54973.840    -8.299E-22
  54973.911    -2.391E-22
  54973.981     5.745E-23
  54974.051     2.554E-22
  54974.122     4.040E-22
  54974.192     5.028E-22
  54974.263     2.022E-22
  54974.333     5.180E-23
  54974.403     1.502E-22
  54974.474     2.985E-22
  54974.544     1.479E-22
  54974.614     1.966E-22
  54974.685     3.450E-22
  54974.755     2.940E-22
  54974.826     1.932E-22
  54974.896    -1.062E-22
  54974.966     1.411E-22
  54975.037     1.898E-22
  54975.107     3.382E-22
  54975.177     9.384E-22
  54975.248     1.290E-21
  54975.318     1.087E-21
  54975.389     5.837E-22
  54975.459     2.328E-22
  54975.529     3.314E-22
  54975.600     6.304E-22
  54975.670     7.295E-22
  54975.740     3.280E-22
  54975.811    -7.132E-23
  54975.881    -1.717E-22
  54975.952     2.249E-22
  54976.022     3.734E-22
  54976.092     4.723E-22
  54976.163     3.712E-22
  54976.233     1.207E-22
  54976.303     6.985E-23
  54976.374    -3.071E-23
  54976.444    -1.807E-22
  54976.515    -2.314E-22
  54976.585    -8.377E-23
  54976.655     1.446E-23
  54976.726     1.333E-23
  54976.796     1.615E-22
  54976.866     2.600E-22
  54976.937     2.589E-22
  54977.007     1.083E-22
  54977.078    -2.900E-22
  54977.148    -3.901E-22
  54977.218    -9.395E-23
  54977.289    -9.508E-23
  54977.359    -1.954E-22
  54977.429     2.014E-24
  54977.500    -2.473E-22
  54977.570    -4.958E-22
  54977.641    -4.475E-22
  54977.711    -4.486E-22
  54977.781    -6.472E-22
  54977.852    -5.497E-22
  54977.922    -1.549E-22
  54977.993     4.417E-22
  54978.063     6.910E-22
  54978.133     5.896E-22
  54978.204     3.384E-22
  54978.274     1.875E-22
  54978.344     4.360E-22
  54978.415     1.853E-22
  54978.485    -3.622E-22
  54978.556    -3.633E-22
  54978.626     8.226E-23
  54978.696     2.805E-22
  54978.767    -1.949E-23
  54978.837    -1.200E-22
  54978.908    -2.204E-22
  54978.978    -1.223E-22
  54979.048     2.571E-23
  54979.119     2.238E-22
  54979.189     5.726E-22
  54979.259     6.718E-22
  54979.330     5.704E-22
  54979.400     3.691E-22
  54979.471     4.680E-22
  54979.541     6.171E-22
  54979.611     5.658E-22
  54979.682    -1.336E-22
  54979.752    -1.121E-21
  54979.823    -1.562E-21
  54979.893    -1.661E-21
  54979.963    -1.662E-21
  54980.034    -1.565E-21
  54980.104    -1.225E-21
  54980.174    -6.857E-22
  54980.245     1.558E-22
  54980.315     1.049E-22
  54980.386     1.536E-22
  54980.456     5.523E-22
  54980.526     8.524E-22
  54980.597     9.016E-22
  54980.667     8.501E-22
  54980.738     8.993E-22
  54980.808     1.100E-21
  54980.878     1.250E-21
  54980.949     5.945E-22
  54981.019    -1.551E-22
  54981.089    -6.511E-22
  54981.160    -9.476E-22
  54981.230    -9.487E-22
  54981.301    -1.097E-21
  54981.371    -1.489E-21
  54981.441    -1.050E-21
  54981.512    -5.098E-22
  54981.582    -3.625E-22
  54981.653     3.356E-23
  54981.723     3.317E-22
  54981.793     8.823E-22
  54981.864     1.184E-21
  54981.934     9.304E-22
  54982.005     5.775E-22
  54982.075     5.262E-22
  54982.145     5.752E-22
  54982.216     8.755E-22
  54982.286     1.076E-21
  54982.356     1.378E-21
  54982.427     1.276E-21
  54982.497     7.704E-22
  54982.568     3.681E-22
  54982.638    -3.206E-23
  54982.708    -3.311E-22
  54982.779    -7.769E-22
  54982.849    -7.287E-22
  54982.920    -4.335E-22
  54982.990    -3.356E-22
  54983.060    -6.335E-22
  54983.131    -1.078E-21
  54983.201    -1.128E-21
  54983.272    -1.715E-21
  54983.342    -1.862E-21
  54983.412    -1.620E-21
  54983.483    -1.377E-21
  54983.553    -1.133E-21
  54983.624    -1.330E-21
  54983.694    -1.527E-21
  54983.764    -1.382E-21
  54983.835    -1.334E-21
  54983.905    -1.335E-21
  54983.976    -1.385E-21
  54984.046    -1.776E-21
  54984.116    -1.582E-21
  54984.187    -1.242E-21
  54984.257    -4.055E-22
  54984.327     1.400E-22
  54984.398     2.886E-22
  54984.468     3.375E-22
  54984.539     5.868E-22
  54984.609     7.867E-22
  54984.679     5.344E-22
  54984.750    -1.630E-23
  54984.820    -6.719E-23
  54984.891    -1.857E-23
  54984.961     1.298E-22
  54985.031    -2.083E-23
  54985.102    -1.712E-22
  54985.172    -4.203E-22
  54985.243    -5.204E-22
  54985.313    -9.161E-22
  54985.383    -1.359E-21
  54985.454    -1.458E-21
  54985.524    -1.067E-21
  54985.595    -3.280E-22
  54985.665     4.183E-22
  54985.735     5.174E-22
  54985.806     1.162E-22
  54985.876    -2.829E-22
  54985.947    -6.306E-22
  54986.017    -2.356E-22
  54986.087     2.614E-22
  54986.158     3.603E-22
  54986.228     1.094E-22
  54986.299    -2.401E-22
  54986.369    -2.909E-22
  54986.439     6.285E-24
  54986.510     2.546E-22
  54986.580     4.537E-22
  54986.651     4.024E-22
  54986.721     2.013E-22
  54986.791     2.501E-22
  54986.862     2.489E-22
  54986.932     2.978E-22
  54987.003    -5.258E-23
  54987.073    -6.981E-22
  54987.143    -1.093E-21
  54987.214    -1.094E-21
  54987.284    -8.987E-22
  54987.355    -3.563E-22
  54987.425     1.400E-22
  54987.495     6.396E-22
  54987.566     5.883E-22
  54987.636     3.683E-23
  54987.707    -5.106E-22
  54987.777    -5.612E-22
  54987.847    -3.643E-22
  54987.918    -6.733E-23
  54987.988     3.809E-22
  54988.059     2.797E-22
  54988.129     5.290E-22
  54988.199     6.785E-22
  54988.270     5.267E-22
  54988.340     7.266E-22
  54988.411     5.244E-22
  54988.481     5.735E-22
  54988.551     6.729E-22
  54988.622     4.709E-22
  54988.692    -7.981E-23
  54988.763     1.184E-22
  54988.833     1.122E-21
  54988.903     2.345E-21
  54988.974     3.431E-21
  54989.044     4.006E-21
  54989.115     4.057E-21
  54989.185     3.741E-21
  54989.255     3.270E-21
  54989.326     2.957E-21
  54989.396     3.060E-21
  54989.467     2.851E-21
  54989.537     2.540E-21
  54989.607     2.128E-21
  54989.678     1.769E-21
  54989.748     1.768E-21
  54989.819     1.767E-21
  54989.889     1.817E-21
  54989.959     1.969E-21
  54990.030     1.916E-21
  54990.100     1.457E-21
  54990.171     1.455E-21
  54990.241     1.556E-21
  54990.312     1.402E-21
  54990.382     1.605E-21
  54990.452     1.807E-21
  54990.523     1.247E-21
  54990.593     5.395E-22
  54990.664     2.377E-22
  54990.734     1.366E-22
  54990.804     9.388E-22
  54990.875     1.648E-21
  54990.945     1.749E-21
  54991.016     1.340E-21
  54991.086     5.817E-22
  54991.156     2.996E-23
  54991.227    -3.691E-22
  54991.297    -2.710E-22
  54991.368    -7.314E-23
  54991.438     5.761E-22
  54991.508     9.779E-22
  54991.579     9.768E-22
  54991.649     1.229E-21
  54991.720     9.745E-22
  54991.790     3.697E-22
  54991.860    -5.281E-22
  54991.931    -9.243E-22
  54992.001    -6.787E-22
  54992.072    -4.324E-22
  54992.142     1.406E-23
  54992.213     7.145E-22
  54992.283     6.630E-22
  54992.353     1.065E-23
  54992.424    -4.034E-23
  54992.494     1.582E-22
  54992.565     1.071E-22
  54992.635     5.601E-23
  54992.705     1.548E-22
  54992.776    -4.602E-23
  54992.846    -9.698E-23
  54992.917     3.515E-22
  54992.987     1.005E-21
  54993.057     1.358E-21
  54993.128     1.104E-21
  54993.198     6.482E-22
  54993.269     4.963E-22
  54993.339     3.948E-22
  54993.410     2.434E-22
  54993.480    -5.738E-23
  54993.550     4.124E-23
  54993.621     3.903E-22
  54993.691     4.895E-22
  54993.762     1.377E-22
  54993.832     1.366E-22
  54993.902     2.855E-22
  54993.973     4.850E-22
  54994.043     7.857E-22
  54994.114     7.845E-22
  54994.184     4.816E-22
  54994.254     2.298E-22
  54994.325     3.288E-22
  54994.395    -1.220E-22
  54994.466    -4.214E-22
  54994.536    -2.238E-22
  54994.607    -3.244E-22
  54994.677    -5.735E-22
  54994.747    -6.241E-22
  54994.818    -9.216E-22
  54994.888    -8.734E-22
  54994.959    -8.252E-22
  54995.029    -7.770E-22
  54995.099    -5.308E-22
  54995.170    -3.335E-22
  54995.240     5.650E-22
  54995.311     1.068E-21
  54995.381     4.622E-22
  54995.452    -6.355E-22
  54995.522    -1.130E-21
  54995.592    -9.834E-22
  54995.663    -6.884E-22
  54995.733    -5.905E-22
  54995.804    -6.412E-22
  54995.874    -4.937E-22
  54995.944    -5.444E-22
  54996.015    -4.960E-22
  54996.085    -2.985E-22
  54996.156    -6.469E-22
  54996.226    -7.469E-22
  54996.297    -8.961E-22
  54996.367    -1.144E-21
  54996.437    -1.243E-21
  54996.508    -5.535E-22
  54996.578     4.429E-22
  54996.649     9.961E-22
  54996.719     7.425E-22
  54996.790     3.392E-22
  54996.860     5.389E-22
  54996.930     8.400E-22
  54997.001     3.859E-22
  54997.071     1.843E-22
  54997.142     3.322E-23
  54997.212    -6.773E-23
  54997.282    -1.686E-22
  54997.353    -4.183E-22
  54997.423    -6.673E-22
  54997.494    -3.710E-22
  54997.564     2.640E-23
  54997.635    -2.466E-23
  54997.705    -5.233E-22
  54997.775    -8.707E-22
  54997.846    -1.069E-21
  54997.916    -8.730E-22
  54997.987    -5.278E-22
  54998.057    -2.806E-22
  54998.127    -3.262E-23
  54998.198     5.676E-22
  54998.268     7.175E-22
  54998.339     3.142E-22
  54998.409    -3.716E-23
  54998.480    -2.377E-22
  54998.550    -2.886E-22
  54998.620    -7.855E-22
  54998.691    -7.372E-22
  54998.761    -6.394E-22
  54998.832    -8.384E-22
  54998.902    -5.426E-22
  54998.973    -1.958E-22
  54999.043    -9.729E-23
  54999.113     2.515E-22
  54999.184     8.036E-22
  54999.254     6.008E-22
  54999.325     5.494E-22
  54999.395     3.473E-22
  54999.466     3.963E-22
  54999.536     7.979E-22
  54999.606     1.050E-21
  54999.677     9.472E-22
  54999.747     1.047E-21
  54999.818     7.934E-22
  54999.888     3.895E-22
  54999.959    -1.121E-22
  55000.029    -5.608E-22
  55000.099    -7.105E-22
  55000.170    -6.622E-22
  55000.240    -6.138E-22
  55000.311    -7.139E-22
  55000.381    -5.169E-22
  55000.452    -3.193E-22
  55000.522     2.861E-23
  55000.592     3.781E-22
  55000.663     2.766E-22
  55000.733    -1.744E-22
  55000.804    -1.257E-22
  55000.874    -3.261E-22
  55000.944    -5.756E-22
  55001.015    -5.271E-22
  55001.085    -1.801E-22
  55001.156    -3.159E-23
  55001.226    -3.273E-23
  55001.297     1.161E-22
  55001.367    -3.500E-23
  55001.437    -4.346E-22
  55001.508    -9.310E-22
  55001.578    -1.031E-21
  55001.649    -8.839E-22
  55001.719    -8.356E-22
  55001.790    -9.176E-23
  55001.860     7.099E-22
  55001.931     1.418E-21
  55002.001     1.519E-21
  55002.071     1.010E-21
  55002.142     1.025E-22
  55002.212    -3.477E-22
  55002.283    -3.489E-22
  55002.353    -4.494E-22
  55002.424    -5.002E-22
  55002.494    -6.997E-22
  55002.564    -7.998E-22
  55002.635    -7.515E-22
  55002.705    -5.544E-22
  55002.776    -1.576E-22
  55002.846     9.108E-23
  55002.917    -1.599E-22
  55002.987    -7.077E-22
  55003.057    -7.583E-22
  55003.128    -2.630E-22
  55003.198    -1.644E-22
  55003.269    -6.573E-23
  55003.339     1.332E-22
  55003.410     3.326E-22
  55003.480     1.292E-21
  55003.550     1.954E-21
  55003.621     1.442E-21
  55003.691     6.299E-22
  55003.762     2.266E-22
  55003.832    -1.248E-22
  55003.903    -4.745E-22
  55003.973    -6.245E-22
  55004.043    -3.276E-22
  55004.114     2.057E-23
  55004.184     6.945E-23
  55004.255     1.685E-22
  55004.325     2.676E-22
  55004.396     2.163E-22
  55004.466     5.670E-22
  55004.537     7.676E-22
  55004.607     6.655E-22
  55004.677     4.126E-22
  55004.748    -8.963E-23
  55004.818    -1.906E-22
  55004.889     1.582E-22
  55004.959     7.103E-22
  55005.030     1.165E-21
  55005.100     1.469E-21
  55005.170     1.112E-21
  55005.241     1.009E-21
  55005.311     8.562E-22
  55005.382     7.035E-22
  55005.452     2.996E-22
  55005.523     1.981E-22
  55005.593     3.978E-22
  55005.663     2.962E-22
  55005.734     1.947E-22
  55005.804    -6.757E-24
  55005.875    -2.575E-22
  55005.945    -7.555E-22
  55006.016    -1.004E-21
  55006.086    -1.251E-21
  55006.157    -1.400E-21
  55006.227    -1.352E-21
  55006.297    -1.008E-21
  55006.368    -6.136E-22
  55006.438    -2.168E-22
  55006.509     2.825E-22
  55006.579     4.825E-22
  55006.650     7.335E-22
  55006.720     9.853E-22
  55006.790     1.187E-21
  55006.861     9.830E-22
  55006.931     8.806E-22
  55007.002     9.807E-22
  55007.072     1.132E-21
  55007.143     8.772E-22
  55007.213     7.055E-23
  55007.284    -6.780E-22
  55007.354    -1.025E-21
  55007.424    -1.175E-21
  55007.495    -1.274E-21
  55007.565    -1.226E-21
  55007.636    -1.326E-21
  55007.706    -1.130E-21
  55007.777    -6.364E-22
  55007.847    -1.397E-22
  55007.918    -4.399E-22
  55007.988    -8.380E-22
  55008.058    -1.037E-21
  55008.129    -1.186E-21
  55008.199    -1.433E-21
  55008.270    -9.415E-22
  55008.340    -2.974E-22
  55008.411    -4.890E-23
  55008.481    -1.577E-26
  55008.552    -2.011E-22
  55008.622    -2.295E-24
  55008.692     7.004E-22
  55008.763     1.206E-21
  55008.833     1.103E-21
  55008.904     6.970E-22
  55008.974     1.423E-22
  55009.045    -3.586E-22
  55009.115    -5.090E-22
  55009.186    -4.107E-22
  55009.256    -1.255E-23
  55009.326     5.388E-22
  55009.397     1.043E-21
  55009.467     1.347E-21
  55009.538     6.363E-22
  55009.608     3.181E-23
  55009.679    -2.692E-22
  55009.749    -1.705E-22
  55009.820     3.294E-22
  55009.890     1.035E-21
  55009.960     1.697E-21
  55010.031     1.491E-21
  55010.101     5.767E-22
  55010.172    -2.772E-22
  55010.242    -5.770E-22
  55010.313    -4.787E-22
  55010.383    -3.079E-23
  55010.454     2.689E-22
  55010.524     7.719E-22
  55010.594     8.213E-22
  55010.665     6.685E-22
  55010.735     1.138E-22
  55010.806    -3.871E-22
  55010.876    -4.878E-22
  55010.947    -6.877E-22
  55011.017    -7.880E-22
  55011.088    -1.184E-21
  55011.158    -1.186E-21
  55011.228    -8.409E-22
  55011.299    -3.453E-22
  55011.369    -3.962E-22
  55011.440    -4.472E-22
  55011.510    -9.939E-22
  55011.581    -1.192E-21
  55011.651    -1.095E-21
  55011.722    -1.441E-21
  55011.792    -1.932E-21
  55011.863    -1.541E-21
  55011.933    -1.001E-21
  55012.003    -7.544E-22
  55012.074    -4.076E-22
  55012.144    -4.088E-22
  55012.215    -1.005E-21
  55012.285    -1.548E-21
  55012.356    -9.581E-22
  55012.426    -5.626E-22
  55012.497     2.359E-22
  55012.567     8.400E-22
  55012.637     7.377E-22
  55012.708     7.365E-22
  55012.778     6.343E-22
  55012.849     3.307E-22
  55012.919     5.311E-22
  55012.990     6.814E-22
  55013.060     9.334E-22
  55013.131     4.268E-22
  55013.201     2.376E-23
  55013.272    -6.260E-22
  55013.342    -1.270E-21
  55013.412    -1.222E-21
  55013.483    -7.783E-22
  55013.553    -6.306E-22
  55013.624    -8.302E-22
  55013.694    -1.029E-21
  55013.765    -1.030E-21
  55013.835    -7.344E-22
  55013.906    -3.875E-22
  55013.976    -1.390E-22
  55014.047    -3.399E-22
  55014.117    -6.397E-22
  55014.187    -5.414E-22
  55014.258    -3.433E-22
  55014.328    -4.441E-22
  55014.399    -4.453E-22
  55014.469    -3.966E-22
  55014.540    -3.977E-22
  55014.610     4.029E-22
  55014.681     1.467E-21
  55014.751     2.185E-21
  55014.822     2.235E-21
  55014.892     1.976E-21
  55014.962     1.770E-21
  55015.033     1.206E-21
  55015.103     7.484E-22
  55015.174     6.966E-22
  55015.244     4.934E-22
  55015.315     2.405E-22
  55015.385     3.400E-22
  55015.456     5.405E-22
  55015.526     7.415E-22
  55015.597     5.887E-22
  55015.667     4.362E-22
  55015.737     2.839E-22
  55015.808    -5.676E-22
  55015.878    -7.675E-22
  55015.949    -6.694E-22
  55016.019    -2.220E-22
