 18O2;(8,0);79K;53720-4031 cm-1;4614 pts
      WNO        SIGMA
  53720.090     1.590E-22
  53720.157     2.096E-22
  53720.224     2.476E-22
  53720.291     3.368E-22
  53720.358     4.135E-22
  53720.425     2.979E-22
  53720.492     2.083E-22
  53720.559     1.699E-22
  53720.626     1.188E-22
  53720.693     6.792E-23
  53720.761     4.238E-23
  53720.828     4.211E-23
  53720.895    -8.619E-24
  53720.962    -3.407E-23
  53721.029    -5.949E-23
  53721.096    -5.976E-23
  53721.163    -1.353E-22
  53721.230    -2.106E-22
  53721.297    -3.229E-22
  53721.364    -3.975E-22
  53721.431    -2.861E-22
  53721.499    -1.116E-22
  53721.566     3.919E-23
  53721.633     8.951E-23
  53721.700     1.019E-22
  53721.767     1.524E-22
  53721.834     2.157E-22
  53721.901     2.793E-22
  53721.968     1.262E-22
  53722.035    -5.261E-25
  53722.102    -1.265E-22
  53722.169    -1.393E-22
  53722.237    -1.019E-22
  53722.304    -2.679E-23
  53722.371     1.076E-23
  53722.438    -2.732E-23
  53722.505    -1.030E-22
  53722.572    -1.033E-22
  53722.639    -2.812E-23
  53722.706    -5.355E-23
  53722.773    -6.639E-23
  53722.840    -1.043E-22
  53722.907    -6.692E-23
  53722.975     3.362E-23
  53723.042     1.220E-22
  53723.109     2.745E-22
  53723.176     3.510E-22
  53723.243     2.101E-22
  53723.310     4.493E-23
  53723.377    -3.104E-23
  53723.444    -6.905E-23
  53723.511     5.677E-23
  53723.578     1.834E-22
  53723.645     8.155E-23
  53723.713    -1.977E-23
  53723.780    -1.331E-22
  53723.847    -3.205E-22
  53723.914    -3.704E-22
  53723.981    -2.962E-22
  53724.048    -1.467E-22
  53724.115    -3.396E-23
  53724.182    -2.163E-23
  53724.249     5.385E-23
  53724.316     4.094E-23
  53724.384    -4.761E-23
  53724.451    -4.787E-23
  53724.518     9.076E-23
  53724.585     1.794E-22
  53724.652     2.173E-22
  53724.719     2.043E-22
  53724.786     6.438E-23
  53724.853    -1.168E-23
  53724.920    -2.455E-23
  53724.987     7.624E-23
  53725.054     2.285E-22
  53725.122     2.282E-22
  53725.189     1.897E-22
  53725.256     1.513E-22
  53725.323     8.758E-23
  53725.390     9.998E-23
  53725.457     2.269E-22
  53725.524     2.905E-22
  53725.591     3.030E-22
  53725.658     2.772E-22
  53725.725     7.332E-23
  53725.793    -2.661E-22
  53725.860    -4.647E-22
  53725.927    -3.908E-22
  53725.994    -1.544E-22
  53726.061     1.227E-22
  53726.128     3.522E-22
  53726.195     4.162E-22
  53726.262     4.159E-22
  53726.329     4.028E-22
  53726.396     3.126E-22
  53726.464     3.124E-22
  53726.531     3.121E-22
  53726.598     2.862E-22
  53726.665     2.221E-22
  53726.732     1.875E-23
  53726.799    -2.326E-22
  53726.866    -3.201E-22
  53726.933    -3.576E-22
  53727.000    -3.703E-22
  53727.068    -3.084E-22
  53727.135    -2.340E-22
  53727.202    -1.717E-22
  53727.269    -1.093E-22
  53727.336    -5.930E-23
  53727.403    -8.472E-23
  53727.470    -9.755E-23
  53727.537    -7.267E-23
  53727.604     4.057E-23
  53727.671     1.926E-22
  53727.739     1.924E-22
  53727.806     1.031E-22
  53727.873     5.216E-23
  53727.940     3.924E-23
  53728.007     6.428E-23
  53728.074     1.020E-22
  53728.141     2.580E-23
  53728.208     1.650E-22
  53728.275     3.437E-22
  53728.342     3.948E-22
  53728.410     3.688E-22
  53728.477     3.557E-22
  53728.544     2.785E-22
  53728.611     1.762E-22
  53728.678     1.250E-22
  53728.745     3.605E-23
  53728.812    -5.255E-23
  53728.879    -6.541E-23
  53728.946    -1.661E-22
  53729.014    -1.288E-22
  53729.081     9.446E-24
  53729.148     1.868E-22
  53729.215     3.143E-22
  53729.282     2.373E-22
  53729.349     1.351E-22
  53729.416     7.137E-23
  53729.483     1.091E-22
  53729.550     2.234E-22
  53729.618     2.871E-22
  53729.685     1.846E-22
  53729.752     4.472E-23
  53729.819     4.445E-23
  53729.886     2.349E-22
  53729.953     2.986E-22
  53730.020     2.088E-22
  53730.087     1.576E-22
  53730.154    -7.434E-24
  53730.221    -1.461E-22
  53730.289    -1.965E-22
  53730.356    -1.215E-22
  53730.423     1.054E-22
  53730.490     3.092E-22
  53730.557     2.962E-22
  53730.624     1.173E-22
  53730.691    -1.605E-22
  53730.758    -3.231E-22
  53730.825    -3.730E-22
  53730.893    -2.114E-22
  53730.960    -4.846E-23
  53731.027     1.284E-22
  53731.094     2.684E-22
  53731.161     3.836E-22
  53731.228     4.220E-22
  53731.295     3.189E-22
  53731.362     1.017E-22
  53731.429     6.339E-23
  53731.497     8.848E-23
  53731.564     2.155E-22
  53731.631     2.280E-22
  53731.698     1.894E-22
  53731.765     1.637E-22
  53731.832     3.039E-22
  53731.899     4.580E-22
  53731.966     5.484E-22
  53732.033     4.575E-22
  53732.101     2.517E-22
  53732.168     2.249E-23
  53732.235    -5.351E-23
  53732.302     3.461E-23
  53732.369     1.613E-22
  53732.436     2.248E-22
  53732.503     1.607E-22
  53732.570     1.096E-22
  53732.638     5.861E-23
  53732.705     4.568E-23
  53732.772     1.088E-22
  53732.839     2.871E-22
  53732.906     3.639E-22
  53732.973     3.507E-22
  53733.040     2.607E-22
  53733.107     1.075E-22
  53733.174    -5.724E-23
  53733.242    -1.078E-22
  53733.309    -1.081E-22
  53733.376    -1.209E-22
  53733.443    -1.338E-22
  53733.510    -1.842E-22
  53733.577    -1.719E-22
  53733.644    -1.597E-22
  53733.711    -1.348E-22
  53733.778    -9.740E-23
  53733.846    -8.508E-23
  53733.913    -8.535E-23
  53733.980    -1.986E-22
  53734.047    -2.863E-22
  53734.114    -2.616E-22
  53734.181    -2.494E-22
  53734.248    -2.621E-22
  53734.315    -2.499E-22
  53734.383    -1.751E-22
  53734.450    -1.001E-22
  53734.517     6.383E-23
  53734.584     1.398E-22
  53734.651     1.009E-26
  53734.718    -5.075E-23
  53734.785     7.545E-23
  53734.852     2.152E-22
  53734.920     2.533E-22
  53734.987     2.658E-22
  53735.054     2.912E-22
  53735.121     2.653E-22
  53735.188     2.650E-22
  53735.255     2.136E-22
  53735.322     1.623E-22
  53735.389     2.386E-22
  53735.456     2.767E-22
  53735.524     2.637E-22
  53735.591     2.506E-22
  53735.658     1.737E-22
  53735.725     1.480E-22
  53735.792     1.859E-22
  53735.859     2.112E-22
  53735.926     2.365E-22
  53735.993     3.516E-22
  53736.061     3.257E-22
  53736.128     3.511E-22
  53736.195     4.023E-22
  53736.262     4.278E-22
  53736.329     3.889E-22
  53736.396     3.629E-22
  53736.463     4.141E-22
  53736.530     4.914E-22
  53736.598     5.950E-22
  53736.665     6.468E-22
  53736.732     6.726E-22
  53736.799     4.774E-22
  53736.866     3.096E-22
  53736.933     2.837E-22
  53737.000     2.963E-22
  53737.067     3.731E-22
  53737.135     3.342E-22
  53737.202     2.187E-22
  53737.269     3.337E-22
  53737.336     4.107E-22
  53737.403     6.569E-22
  53737.470     8.138E-22
  53737.537     6.564E-22
  53737.604     5.260E-22
  53737.672     6.037E-22
  53737.739     7.471E-22
  53737.806     7.600E-22
  53737.873     6.942E-22
  53737.940     5.896E-22
  53738.007     3.951E-22
  53738.074     2.920E-22
  53738.141     2.917E-22
  53738.209     3.428E-22
  53738.276     2.400E-22
  53738.343     1.503E-22
  53738.410     1.628E-22
  53738.477     1.498E-22
  53738.544     4.786E-23
  53738.611     2.226E-23
  53738.678     7.270E-23
  53738.746     8.513E-23
  53738.813     4.680E-23
  53738.880     1.609E-22
  53738.947     2.373E-22
  53739.014     1.987E-22
  53739.081     5.842E-23
  53739.148     3.279E-23
  53739.215     1.979E-22
  53739.283     3.386E-22
  53739.350     3.898E-22
  53739.417     4.024E-22
  53739.484     3.506E-22
  53739.551     2.349E-22
  53739.618     1.453E-22
  53739.685     1.450E-22
  53739.753     2.469E-22
  53739.820     3.107E-22
  53739.887     3.490E-22
  53739.954     3.231E-22
  53740.021     2.971E-22
  53740.088     2.968E-22
  53740.155     2.966E-22
  53740.222     2.195E-22
  53740.290     4.094E-23
  53740.357    -4.788E-23
  53740.424    -6.077E-23
  53740.491    -4.841E-23
  53740.558     2.720E-23
  53740.625    -2.368E-23
  53740.692     3.934E-23
  53740.760     1.535E-22
  53740.827     2.171E-22
  53740.894     3.065E-22
  53740.961     2.806E-22
  53741.028     1.652E-22
  53741.095     1.139E-22
  53741.162     1.646E-22
  53741.229     2.795E-22
  53741.297     2.408E-22
  53741.364     2.918E-22
  53741.431     3.429E-22
  53741.498     2.656E-22
  53741.565     2.269E-22
  53741.632     1.883E-22
  53741.699     8.612E-23
  53741.767     3.508E-23
  53741.834     8.559E-23
  53741.901     1.235E-22
  53741.968     1.359E-22
  53742.035     1.867E-22
  53742.102     9.723E-23
  53742.169    -4.516E-24
  53742.236    -1.743E-23
  53742.304     2.028E-23
  53742.371     1.726E-22
  53742.438     3.647E-22
  53742.505     4.031E-22
  53742.572     2.998E-22
  53742.639     2.867E-22
  53742.706     3.121E-22
  53742.774     2.862E-22
  53742.841     1.580E-22
  53742.908     1.195E-22
  53742.975     1.320E-22
  53743.042     9.350E-23
  53743.109    -4.618E-23
  53743.176    -1.347E-22
  53743.244    -2.728E-22
  53743.311    -3.604E-22
  53743.378    -4.476E-22
  53743.445    -4.850E-22
  53743.512    -4.852E-22
  53743.579    -4.236E-22
  53743.646    -2.744E-22
  53743.713    -8.643E-23
  53743.781    -3.621E-23
  53743.848    -8.697E-23
  53743.915    -1.376E-22
  53743.982    -4.964E-23
  53744.049    -3.727E-23
  53744.116    -1.384E-22
  53744.183    -1.512E-22
  53744.251    -1.278E-23
  53744.318     1.012E-22
  53744.385     7.546E-23
  53744.452     1.516E-22
  53744.519     2.664E-22
  53744.586     2.662E-22
  53744.653     1.380E-22
  53744.721     1.378E-22
  53744.788     1.503E-22
  53744.855     2.267E-22
  53744.922     3.419E-22
  53744.989     4.320E-22
  53745.056     3.930E-22
  53745.123     2.512E-22
  53745.191     7.226E-23
  53745.258    -1.678E-23
  53745.325    -1.704E-23
  53745.392    -5.524E-23
  53745.459    -2.065E-22
  53745.526    -3.069E-22
  53745.593    -2.822E-22
  53745.661    -1.697E-22
  53745.728    -5.657E-23
  53745.795    -6.251E-24
  53745.862    -3.183E-23
  53745.929    -1.078E-22
  53745.996    -4.500E-23
  53746.063     1.324E-22
  53746.131     2.472E-22
  53746.198     2.854E-22
  53746.265     3.237E-22
  53746.332     3.106E-22
  53746.399     1.694E-22
  53746.466     4.179E-23
  53746.533     1.616E-23
  53746.601     5.396E-23
  53746.668     9.183E-23
  53746.735     7.884E-23
  53746.802     1.040E-22
  53746.869     7.831E-23
  53746.936    -1.078E-23
  53747.004     1.616E-24
  53747.071     5.209E-23
  53747.138     1.792E-22
  53747.205     2.429E-22
  53747.272     2.555E-22
  53747.339     3.066E-22
  53747.406     3.578E-22
  53747.474     3.447E-22
  53747.541     2.544E-22
  53747.608     1.774E-22
  53747.675     1.260E-22
  53747.742     1.513E-22
  53747.809     2.021E-22
  53747.876     1.507E-22
  53747.944     1.632E-22
  53748.011     7.377E-23
  53748.078     1.372E-22
  53748.145     2.392E-22
  53748.212     2.518E-22
  53748.279     2.643E-22
  53748.346     2.512E-22
  53748.414     2.895E-22
  53748.481     3.278E-22
  53748.548     2.504E-22
  53748.615     2.502E-22
  53748.682     3.141E-22
  53748.749     3.654E-22
  53748.817     3.136E-22
  53748.884     1.979E-22
  53748.951     5.733E-23
  53749.018    -4.436E-23
  53749.085    -1.204E-22
  53749.152    -9.542E-23
  53749.219    -4.516E-23
  53749.287    -7.454E-24
  53749.354     3.032E-23
  53749.421     6.817E-23
  53749.488     1.188E-22
  53749.555     1.058E-22
  53749.622     1.657E-23
  53749.689    -3.438E-23
  53749.757     3.352E-24
  53749.824     1.813E-22
  53749.891     1.939E-22
  53749.958     1.170E-22
  53750.025     6.577E-23
  53750.092    -9.916E-23
  53750.160    -8.680E-23
  53750.227    -3.651E-23
  53750.294    -3.678E-23
  53750.361    -6.234E-23
  53750.428    -1.131E-22
  53750.495    -6.287E-23
  53750.562    -1.262E-22
  53750.630    -1.769E-22
  53750.697    -1.897E-22
  53750.764    -1.648E-22
  53750.831    -1.399E-22
  53750.898    -8.974E-23
  53750.965    -5.210E-23
  53751.033    -6.501E-23
  53751.100     4.879E-23
  53751.167     1.632E-22
  53751.234     1.885E-22
  53751.301     2.523E-22
  53751.368     2.264E-22
  53751.436     2.005E-22
  53751.503     2.259E-22
  53751.570     3.026E-22
  53751.637     3.153E-22
  53751.704     2.379E-22
  53751.771     9.701E-23
  53751.838     2.045E-23
  53751.906     7.494E-24
  53751.973     1.992E-23
  53752.040     9.595E-23
  53752.107     1.850E-22
  53752.174     3.776E-22
  53752.241     4.032E-22
  53752.309     2.612E-22
  53752.376     1.712E-22
  53752.443    -7.323E-24
  53752.510    -7.088E-23
  53752.577     4.291E-23
  53752.644     6.808E-23
  53752.712     1.698E-23
  53752.779    -7.195E-23
  53752.846    -2.233E-22
  53752.913    -1.482E-22
  53752.980    -6.011E-23
  53753.047    -7.302E-23
  53753.114    -9.855E-23
  53753.182    -1.026E-23
  53753.249     1.294E-22
  53753.316     2.571E-22
  53753.383     2.569E-22
  53753.450     1.797E-22
  53753.517     7.734E-23
  53753.585     1.536E-22
  53753.652     3.330E-22
  53753.719     5.140E-22
  53753.786     6.311E-22
  53753.853     7.356E-22
  53753.920     6.698E-22
  53753.988     5.129E-22
  53754.055     2.671E-22
  53754.122     4.949E-23
  53754.189    -1.658E-22
  53754.256    -2.415E-22
  53754.323    -1.664E-22
  53754.391    -1.036E-22
  53754.458    -2.652E-24
  53754.525     1.371E-22
  53754.592     1.880E-22
  53754.659     2.005E-22
  53754.726     1.746E-22
  53754.794     1.744E-22
  53754.861     1.613E-22
  53754.928     1.994E-22
  53754.995     9.694E-23
  53755.062     7.633E-24
  53755.129    -3.068E-23
  53755.197    -4.361E-23
  53755.264    -1.449E-22
  53755.331    -2.458E-22
  53755.398    -2.711E-22
  53755.465    -2.212E-22
  53755.532    -8.290E-23
  53755.600    -7.193E-24
  53755.667    -5.814E-23
  53755.734    -3.308E-23
  53755.801     4.281E-23
  53755.868     1.829E-22
  53755.935     2.211E-22
  53756.003     2.336E-22
  53756.070     2.590E-22
  53756.137     2.459E-22
  53756.204     1.944E-22
  53756.271     1.941E-22
  53756.338     1.043E-22
  53756.406     7.859E-23
  53756.473     5.286E-23
  53756.540     5.259E-23
  53756.607     9.053E-23
  53756.674     1.030E-22
  53756.741     1.155E-22
  53756.809     1.280E-22
  53756.876     7.672E-23
  53756.943    -8.851E-23
  53757.010    -2.022E-22
  53757.077    -2.151E-22
  53757.144    -1.650E-22
  53757.212    -7.693E-23
  53757.279     1.151E-23
  53757.346     7.485E-23
  53757.413     1.639E-22
  53757.480     6.158E-23
  53757.547    -4.030E-23
  53757.615    -1.417E-22
  53757.682    -1.671E-22
  53757.749    -1.044E-22
  53757.816    -4.136E-23
  53757.883     5.997E-23
  53757.950     1.874E-22
  53758.018     2.513E-22
  53758.085     2.767E-22
  53758.152     3.538E-22
  53758.219     2.891E-22
  53758.286     2.245E-22
  53758.353     1.730E-22
  53758.421     1.088E-22
  53758.488     4.484E-23
  53758.555     1.914E-23
  53758.622    -6.528E-24
  53758.689    -8.281E-23
  53758.756    -1.210E-22
  53758.824    -8.335E-23
  53758.891    -5.831E-23
  53758.958     1.322E-22
  53759.025     2.730E-22
  53759.092     3.372E-22
  53759.160     3.369E-22
  53759.227     3.495E-22
  53759.294     3.622E-22
  53759.361     3.619E-22
  53759.428     3.487E-22
  53759.495     4.002E-22
  53759.563     3.095E-22
  53759.630     2.320E-22
  53759.697     1.293E-22
  53759.764     1.625E-24
  53759.831    -1.000E-22
  53759.898    -1.382E-22
  53759.966    -1.762E-22
  53760.033    -1.639E-22
  53760.100    -1.011E-22
  53760.167     2.544E-23
  53760.234     1.655E-22
  53760.301     2.294E-22
  53760.369     3.708E-22
  53760.436     5.263E-22
  53760.503     5.782E-22
  53760.570     6.171E-22
  53760.637     6.038E-22
  53760.705     5.643E-22
  53760.772     4.469E-22
  53760.839     2.529E-22
  53760.906     1.628E-22
  53760.973     2.138E-22
  53761.040     2.008E-22
  53761.108     1.877E-22
  53761.175     2.130E-22
  53761.242     2.000E-22
  53761.309     1.357E-22
  53761.376     4.607E-23
  53761.444     8.404E-23
  53761.511     9.653E-23
  53761.578     7.075E-23
  53761.645    -9.458E-23
  53761.712    -1.580E-22
  53761.779    -1.960E-22
  53761.847    -2.089E-22
  53761.914    -2.343E-22
  53761.981    -2.597E-22
  53762.048    -2.223E-22
  53762.115    -1.344E-22
  53762.182    -7.141E-23
  53762.250    -5.901E-23
  53762.317    -5.928E-23
  53762.384    -8.804E-24
  53762.451     2.907E-23
  53762.518     1.608E-23
  53762.586    -1.110E-22
  53762.653    -3.125E-22
  53762.720    -3.752E-22
  53762.787    -3.255E-22
  53762.854    -2.632E-22
  53762.921    -1.754E-22
  53762.989    -6.195E-23
  53763.056    -4.955E-23
  53763.123    -2.444E-23
  53763.190     3.885E-23
  53763.257     1.314E-23
  53763.325    -1.255E-23
  53763.392    -8.888E-23
  53763.459    -7.649E-23
  53763.526     1.207E-23
  53763.593     4.998E-23
  53763.660    -1.182E-24
  53763.728    -1.534E-22
  53763.795    -2.041E-22
  53763.862    -1.160E-22
  53763.929    -2.765E-23
  53763.996    -1.039E-22
  53764.064    -7.890E-23
  53764.131     9.658E-24
  53764.198     6.032E-23
  53764.265     1.751E-22
  53764.332     1.876E-22
  53764.400     7.227E-23
  53764.467    -6.784E-23
  53764.534    -2.824E-22
  53764.601    -4.326E-22
  53764.668    -4.826E-22
  53764.735    -4.082E-22
  53764.803    -2.332E-22
  53764.870     6.714E-24
  53764.937     1.340E-22
  53765.004     1.593E-22
  53765.071     1.719E-22
  53765.139     1.204E-22
  53765.206    -3.274E-23
  53765.273    -1.595E-22
  53765.340    -1.219E-22
  53765.407     1.729E-23
  53765.475     1.447E-22
  53765.542     2.213E-22
  53765.609     2.211E-22
  53765.676     7.994E-23
  53765.743    -9.477E-24
  53765.810    -7.319E-23
  53765.878    -4.810E-23
  53765.945     2.432E-24
  53766.012    -1.055E-23
  53766.079     5.282E-23
  53766.146     9.083E-23
  53766.214     2.058E-22
  53766.281     3.861E-22
  53766.348     5.549E-22
  53766.415     6.988E-22
  53766.482     6.460E-22
  53766.550     5.150E-22
  53766.617     3.589E-22
  53766.684     2.296E-22
  53766.751     1.268E-22
  53766.818     4.988E-23
  53766.885    -3.943E-23
  53766.953    -2.700E-23
  53767.020     8.735E-23
  53767.087     1.254E-22
  53767.154     1.380E-22
  53767.221     1.377E-22
  53767.289     1.630E-22
  53767.356     9.879E-23
  53767.423    -3.457E-24
  53767.490    -1.052E-22
  53767.557    -1.560E-22
  53767.625    -1.310E-22
  53767.692    -1.313E-22
  53767.759    -5.560E-23
  53767.826    -5.587E-23
  53767.893    -1.068E-22
  53767.961    -5.599E-24
  53768.028     1.958E-23
  53768.095    -5.694E-23
  53768.162    -4.452E-23
  53768.229    -1.938E-23
  53768.297     5.674E-23
  53768.364     1.331E-22
  53768.431     1.329E-22
  53768.498     1.198E-22
  53768.565     4.712E-24
  53768.632    -4.639E-23
  53768.700     1.690E-23
  53768.767     1.315E-22
  53768.834     1.569E-22
  53768.901     6.709E-23
  53768.968     6.682E-23
  53769.036     7.932E-23
  53769.103     5.353E-23
  53769.170     1.503E-23
  53769.237    -7.417E-23
  53769.304    -1.504E-22
  53769.372    -1.000E-22
  53769.439     9.049E-23
  53769.506     1.670E-22
  53769.573     3.471E-22
  53769.640     5.027E-22
  53769.708     3.854E-22
  53769.775     2.817E-22
  53769.842     2.943E-22
  53769.909     3.070E-22
  53769.976     3.067E-22
  53770.044     3.711E-22
  53770.111     3.838E-22
  53770.178     4.615E-22
  53770.245     4.222E-22
  53770.312     2.280E-22
  53770.380    -2.520E-24
  53770.447    -2.788E-24
  53770.514     8.620E-23
  53770.581     2.013E-22
  53770.648     2.138E-22
  53770.716     2.264E-22
  53770.783     3.682E-22
  53770.850     4.848E-22
  53770.917     4.065E-22
  53770.984     3.544E-22
  53771.052     2.895E-22
  53771.119     2.248E-22
  53771.186     2.246E-22
  53771.253     9.604E-23
  53771.320     4.469E-23
  53771.388     3.167E-23
  53771.455     1.080E-22
