 18O2;(9,0);79K;54160-486 cm-1;4760 pts
      WNO        SIGMA
  54160.089     5.023E-22
  54160.157     2.769E-22
  54160.225     2.560E-22
  54160.293     3.167E-22
  54160.361     4.798E-22
  54160.429     7.055E-22
  54160.497     7.670E-22
  54160.565     6.221E-22
  54160.633     4.777E-22
  54160.701     3.545E-22
  54160.770     2.113E-22
  54160.838     1.905E-22
  54160.906     2.510E-22
  54160.974     3.933E-22
  54161.042     3.519E-22
  54161.110     3.106E-22
  54161.178     3.509E-22
  54161.246     1.468E-22
  54161.314     1.260E-22
  54161.382     8.498E-23
  54161.450     4.398E-23
  54161.519     2.668E-22
  54161.587     3.888E-22
  54161.655     5.112E-22
  54161.723     5.723E-22
  54161.791     6.336E-22
  54161.859     5.713E-22
  54161.927     3.863E-22
  54161.995     1.007E-22
  54162.063    -4.140E-23
  54162.132    -1.512E-24
  54162.200     2.007E-22
  54162.268     5.272E-22
  54162.336     7.121E-22
  54162.404     8.357E-22
  54162.472     8.560E-22
  54162.540     7.933E-22
  54162.608     5.452E-22
  54162.676     3.194E-22
  54162.744     1.416E-23
  54162.813    -2.482E-22
  54162.881    -2.487E-22
  54162.949    -1.286E-22
  54163.017    -6.865E-23
  54163.085     2.145E-22
  54163.153     4.386E-22
  54163.221     3.971E-22
  54163.289     1.926E-22
  54163.357     9.609E-24
  54163.425    -2.126E-22
  54163.494    -3.934E-22
  54163.562    -3.339E-22
  54163.630    -3.144E-22
  54163.698    -2.146E-22
  54163.766     1.688E-22
  54163.834     3.926E-22
  54163.902     3.512E-22
  54163.970     4.940E-22
  54164.038     6.169E-22
  54164.107     3.905E-22
  54164.175    -1.667E-23
  54164.243    -7.775E-23
  54164.311     6.326E-23
  54164.379     1.642E-22
  54164.447     3.880E-22
  54164.515     3.875E-22
  54164.583     1.018E-22
  54164.651    -1.009E-22
  54164.720    -1.417E-22
  54164.788    -2.026E-22
  54164.856    -2.834E-22
  54164.924    -2.237E-22
  54164.992    -1.438E-22
  54165.060     3.744E-23
  54165.128     2.400E-22
  54165.196     3.416E-22
  54165.264     3.002E-22
  54165.333     3.814E-22
  54165.401     4.834E-22
  54165.469     5.034E-22
  54165.537     4.004E-22
  54165.605     2.365E-22
  54165.673     1.953E-22
  54165.741     7.291E-23
  54165.809    -8.586E-24
  54165.877    -1.100E-22
  54165.946    -7.021E-23
  54166.014    -5.052E-23
  54166.082    -1.921E-22
  54166.150    -3.531E-22
  54166.218    -5.133E-22
  54166.286    -5.138E-22
  54166.354    -2.745E-22
  54166.422    -2.348E-22
  54166.490    -2.755E-22
  54166.559    -1.353E-22
  54166.627     2.085E-22
  54166.695     4.943E-22
  54166.763     4.528E-22
  54166.831     3.090E-22
  54166.899     1.049E-22
  54166.967    -7.779E-23
  54167.035    -9.848E-23
  54167.104    -1.191E-22
  54167.172    -1.870E-23
  54167.240     1.633E-22
  54167.308     2.442E-22
  54167.376     1.826E-22
  54167.444     6.027E-23
  54167.512    -1.000E-24
  54167.580     3.899E-23
  54167.648     3.848E-23
  54167.717     5.824E-23
  54167.785    -6.367E-23
  54167.853    -3.257E-22
  54167.921    -3.462E-22
  54167.989    -2.465E-22
  54168.057     1.519E-23
  54168.125     3.607E-22
  54168.193     4.627E-22
  54168.262     4.006E-22
  54168.330     2.366E-22
  54168.398     7.346E-23
  54168.466    -6.873E-23
  54168.534    -1.298E-22
  54168.602    -2.932E-23
  54168.670     2.341E-22
  54168.738     2.744E-22
  54168.807     1.924E-22
  54168.875     1.919E-22
  54168.943     3.137E-22
  54169.011     3.337E-22
  54169.079     2.311E-22
  54169.147     7.100E-24
  54169.215    -5.409E-23
  54169.283    -2.561E-22
  54169.352    -4.368E-22
  54169.420    -3.974E-22
  54169.488    -3.779E-22
  54169.556    -3.383E-22
  54169.624    -4.389E-22
  54169.692    -4.793E-22
  54169.760    -4.399E-22
  54169.828    -3.003E-22
  54169.897    -1.600E-22
  54169.965     2.128E-23
  54170.033     2.648E-22
  54170.101     2.643E-22
  54170.169     2.638E-22
  54170.237     1.817E-22
  54170.305    -2.174E-23
  54170.373    -1.233E-22
  54170.442    -1.036E-22
  54170.510    -1.243E-22
  54170.578    -2.377E-23
  54170.646     7.705E-23
  54170.714     5.626E-23
  54170.782     1.167E-22
  54170.850     1.568E-22
  54170.919     7.503E-23
  54170.987     1.369E-23
  54171.055     1.553E-22
  54171.123     2.975E-22
  54171.191     2.766E-22
  54171.259     2.557E-22
  54171.327     1.940E-22
  54171.395    -9.601E-24
  54171.464    -2.321E-22
  54171.532    -4.530E-22
  54171.600    -5.533E-22
  54171.668    -4.541E-22
  54171.736    -2.542E-22
  54171.804    -1.944E-22
  54171.872    -3.339E-23
  54171.940    -3.389E-23
  54172.009    -2.160E-22
  54172.077    -2.165E-22
  54172.145    -7.585E-23
  54172.213     1.671E-22
  54172.281     2.889E-22
  54172.349     1.660E-22
  54172.417    -1.720E-23
  54172.486    -2.397E-22
  54172.554    -4.007E-22
  54172.622    -5.409E-22
  54172.690    -5.215E-22
  54172.758    -2.819E-22
  54172.826    -1.415E-22
  54172.894    -8.142E-23
  54172.963    -1.021E-22
  54173.031    -1.228E-22
  54173.099    -2.006E-24
  54173.167     5.832E-23
  54173.235     2.614E-22
  54173.303     3.632E-22
  54173.371     1.178E-22
  54173.439    -4.538E-24
  54173.508     9.641E-23
  54173.576     2.181E-22
  54173.644     2.993E-22
  54173.712     2.783E-22
  54173.780     1.147E-22
  54173.848    -2.498E-22
  54173.916    -3.908E-22
  54173.985    -4.113E-22
  54174.053    -1.506E-22
  54174.121     1.325E-22
  54174.189     2.339E-22
  54174.257     1.315E-22
  54174.325    -1.123E-22
  54174.393    -3.743E-22
  54174.462    -2.945E-22
  54174.530    -3.290E-23
  54174.598     8.831E-23
  54174.666     6.748E-23
  54174.734     6.104E-24
  54174.802     1.071E-22
  54174.870     3.720E-22
  54174.939     4.742E-22
  54175.007     4.737E-22
  54175.075     3.091E-22
  54175.143     3.086E-22
  54175.211     2.672E-22
  54175.279     2.258E-22
  54175.347     3.890E-22
  54175.416     4.090E-22
  54175.484     1.631E-22
  54175.552    -2.024E-23
  54175.620    -1.824E-22
  54175.688    -2.232E-22
  54175.756    -8.248E-23
  54175.824    -8.299E-23
  54175.893     7.868E-23
  54175.961     1.188E-22
  54176.029     1.183E-22
  54176.097     3.834E-22
  54176.165     3.829E-22
  54176.233     3.209E-22
  54176.301     2.795E-22
  54176.370     2.381E-22
  54176.438     2.580E-22
  54176.506     7.412E-23
  54176.574    -2.784E-23
  54176.642     1.341E-22
  54176.710     3.584E-22
  54176.779     4.605E-22
  54176.847     3.984E-22
  54176.915     1.728E-22
  54176.983     7.057E-23
  54177.051     4.975E-23
  54177.119    -7.239E-23
  54177.187     8.140E-24
  54177.256     8.887E-23
  54177.324     2.923E-22
  54177.392     4.971E-22
  54177.460     5.378E-22
  54177.528     4.755E-22
  54177.596     5.368E-22
  54177.664     4.128E-22
  54177.733     1.668E-22
  54177.801     6.449E-23
  54177.869     8.431E-23
  54177.937     1.041E-22
  54178.005    -9.921E-23
  54178.073    -1.805E-22
  54178.142    -1.002E-22
  54178.210     1.836E-22
  54178.278     1.423E-22
  54178.346    -4.102E-23
  54178.414    -1.225E-22
  54178.482    -4.047E-22
  54178.550    -7.441E-22
  54178.619    -9.817E-22
  54178.687    -1.061E-21
  54178.755    -1.002E-21
  54178.823    -7.461E-22
  54178.891    -3.676E-22
  54178.959    -2.274E-22
  54179.028    -2.078E-22
  54179.096    -2.083E-22
  54179.164    -8.760E-23
  54179.232     7.417E-23
  54179.300     3.596E-22
  54179.368     6.890E-22
  54179.436     6.677E-22
  54179.505     4.608E-22
  54179.573     3.371E-22
  54179.641     2.342E-22
  54179.709     9.096E-23
  54179.777    -1.528E-22
  54179.845    -3.145E-22
  54179.914    -2.547E-22
  54179.982    -1.139E-22
  54180.050     1.291E-22
  54180.118     2.511E-22
  54180.186     1.078E-22
  54180.254     6.656E-23
  54180.323     2.541E-23
  54180.391    -1.569E-23
  54180.459    -1.620E-23
  54180.527    -1.671E-23
  54180.595    -1.721E-23
  54180.663     4.319E-23
  54180.732     6.301E-23
  54180.800    -5.928E-23
  54180.868    -1.811E-22
  54180.936    -1.816E-22
  54181.004    -1.619E-22
  54181.072    -8.156E-23
  54181.140    -1.831E-22
  54181.209    -2.844E-22
  54181.277    -1.236E-22
  54181.345    -1.241E-22
  54181.413    -1.852E-22
  54181.481    -2.381E-23
  54181.549    -2.432E-23
  54181.618    -4.510E-23
  54181.686     7.625E-23
  54181.754     1.368E-22
  54181.822     5.489E-23
  54181.890     5.438E-23
  54181.958     2.170E-22
  54182.027     4.626E-22
  54182.095     5.446E-22
  54182.163     4.822E-22
  54182.231     5.229E-22
  54182.299     6.257E-22
  54182.367     7.496E-22
  54182.436     8.740E-22
  54182.504     6.656E-22
  54182.572     2.942E-22
  54182.640     1.506E-22
  54182.708     7.651E-24
  54182.776     8.848E-23
  54182.845     1.899E-22
  54182.913     2.303E-22
  54182.981     2.502E-22
  54183.049     2.293E-22
  54183.117     1.675E-22
  54183.185     1.058E-22
  54183.254     1.461E-22
  54183.322     8.442E-23
  54183.390    -1.999E-22
  54183.458    -3.012E-22
  54183.526    -1.807E-22
  54183.594    -3.954E-23
  54183.663     2.043E-22
  54183.731     4.499E-22
  54183.799     6.767E-22
  54183.867     5.934E-22
  54183.935     3.867E-22
  54184.004     1.813E-22
  54184.072     5.848E-23
  54184.140    -1.449E-22
  54184.208    -2.262E-22
  54184.276    -8.516E-23
  54184.344    -2.484E-23
  54184.413     5.595E-23
  54184.481     1.369E-22
  54184.549     7.528E-23
  54184.617     1.155E-22
  54184.685     2.785E-22
  54184.753     2.370E-22
  54184.822     1.140E-22
  54184.890     7.275E-23
  54184.958    -2.940E-23
  54185.026    -1.919E-22
  54185.094    -1.722E-22
  54185.162     3.002E-23
  54185.231     1.926E-22
  54185.299     3.560E-22
  54185.367     4.377E-22
  54185.435     4.578E-22
  54185.503     3.339E-22
  54185.572     3.745E-22
  54185.640     4.151E-22
  54185.708     4.970E-22
  54185.776     4.141E-22
  54185.844     2.289E-22
  54185.912    -1.621E-23
  54185.981    -1.181E-22
  54186.049    -7.810E-23
  54186.117     2.291E-23
  54186.185     1.242E-22
  54186.253     1.441E-22
  54186.321     2.049E-22
  54186.390     2.249E-22
  54186.458     2.653E-22
  54186.526     2.648E-22
  54186.594     2.233E-22
  54186.662     2.433E-22
  54186.731     3.043E-22
  54186.799     2.423E-22
  54186.867     2.827E-22
  54186.935     3.233E-22
  54187.003     3.433E-22
  54187.071     3.839E-22
  54187.140     5.897E-22
  54187.208     7.136E-22
  54187.276     9.424E-22
  54187.344     1.278E-21
  54187.412     1.341E-21
  54187.481     1.277E-21
  54187.549     1.066E-21
  54187.617     1.045E-21
  54187.685     1.086E-21
  54187.753     9.807E-22
  54187.821     9.174E-22
  54187.890     8.334E-22
  54187.958     7.912E-22
  54188.026     8.532E-22
  54188.094     8.736E-22
  54188.162     7.272E-22
  54188.231     5.402E-22
  54188.299     3.131E-22
  54188.367     2.101E-22
  54188.435     3.326E-22
  54188.503     3.938E-22
  54188.572     4.963E-22
  54188.640     5.165E-22
  54188.708     5.160E-22
  54188.776     3.918E-22
  54188.844     1.044E-22
  54188.912    -7.916E-23
  54188.981    -1.405E-22
  54189.049    -2.622E-22
  54189.117    -3.031E-22
  54189.185    -1.622E-22
  54189.253    -4.626E-25
  54189.322     8.047E-23
  54189.390     2.025E-22
  54189.458     4.485E-22
  54189.526     6.133E-22
  54189.594     6.335E-22
  54189.663     6.123E-22
  54189.731     5.704E-22
  54189.799     6.320E-22
  54189.867     5.280E-22
  54189.935     3.009E-22
  54190.003     7.539E-23
  54190.072    -2.689E-23
  54190.140     3.362E-23
  54190.208    -2.791E-23
  54190.276     5.297E-23
  54190.344     1.136E-22
  54190.413    -2.943E-23
  54190.481    -5.026E-23
  54190.549    -9.136E-23
  54190.617    -2.941E-22
  54190.685    -1.329E-22
  54190.754     1.923E-22
  54190.822     3.765E-22
  54190.890     4.378E-22
  54190.958     5.405E-22
  54191.026     6.643E-22
  54191.095     7.262E-22
  54191.163     5.597E-22
  54191.231     2.092E-22
  54191.299    -2.184E-22
  54191.367    -4.606E-22
  54191.436    -5.612E-22
  54191.504    -4.616E-22
  54191.572    -4.621E-22
  54191.640    -4.425E-22
  54191.708    -4.832E-22
  54191.777    -5.237E-22
  54191.845    -5.242E-22
  54191.913    -4.044E-22
  54191.981    -4.451E-22
  54192.049    -2.442E-22
  54192.118    -1.476E-24
  54192.186     2.021E-22
  54192.254     1.403E-22
  54192.322    -1.249E-22
  54192.390    -3.677E-22
  54192.459    -4.085E-22
  54192.527    -2.680E-22
  54192.595    -4.571E-23
  54192.663     9.635E-23
  54192.731     1.776E-22
  54192.800     1.771E-22
  54192.868     3.365E-23
  54192.936    -1.294E-22
  54193.004     9.381E-23
  54193.072     1.546E-22
  54193.141     1.132E-22
  54193.209     9.228E-23
  54193.277    -1.012E-23
  54193.345    -1.122E-22
  54193.413    -1.533E-22
  54193.482    -1.943E-22
  54193.550    -1.137E-22
  54193.618    -3.301E-23
  54193.686    -5.385E-23
  54193.754     4.742E-23
  54193.823     8.770E-23
  54193.891     8.719E-23
  54193.959     4.589E-23
  54194.027     2.500E-23
  54194.095    -1.623E-23
  54194.164    -3.608E-22
  54194.232    -6.021E-22
  54194.300    -5.225E-22
  54194.368    -4.629E-22
  54194.436    -4.031E-22
  54194.505    -8.027E-23
  54194.573     1.434E-22
  54194.641     1.020E-22
  54194.709     1.991E-23
  54194.777    -9.635E-25
  54194.846    -1.437E-22
  54194.914    -6.301E-23
  54194.982     3.826E-23
  54195.050     1.398E-22
  54195.118     3.239E-22
  54195.187     2.823E-22
  54195.255     2.612E-22
  54195.323     3.429E-22
  54195.391     4.455E-22
  54195.459     3.625E-22
  54195.528     2.797E-22
  54195.596     1.562E-22
  54195.664     7.396E-23
  54195.732    -2.844E-23
  54195.801    -1.305E-22
  54195.869    -1.716E-22
  54195.937    -1.518E-22
  54196.005    -1.726E-22
  54196.073    -1.934E-22
  54196.142    -2.546E-22
  54196.210    -2.551E-22
  54196.278    -7.319E-23
  54196.346     7.696E-24
  54196.414    -3.353E-23
  54196.483     6.785E-23
  54196.551     2.516E-22
  54196.619     2.305E-22
  54196.687     1.685E-22
  54196.755    -7.675E-23
  54196.824    -1.179E-22
  54196.892     6.480E-23
  54196.960     2.075E-22
  54197.028     4.333E-22
  54197.097     4.327E-22
  54197.165     3.910E-22
  54197.233     3.905E-22
  54197.301     4.932E-22
  54197.369     5.134E-22
  54197.438     3.066E-22
  54197.506    -2.133E-23
  54197.574    -2.046E-22
  54197.642    -1.848E-22
  54197.710    -2.865E-22
  54197.779    -3.274E-22
  54197.847    -2.066E-22
  54197.915    -4.474E-23
  54197.983     9.750E-23
  54198.052     3.226E-22
  54198.120     5.492E-22
  54198.188     6.733E-22
  54198.256     6.519E-22
  54198.324     5.891E-22
  54198.393     6.094E-22
  54198.461     5.467E-22
  54198.529     2.984E-22
  54198.597     1.953E-22
  54198.666     3.115E-23
  54198.734    -1.118E-22
  54198.802    -1.326E-22
  54198.870    -1.534E-22
  54198.938    -2.350E-22
  54199.007    -4.975E-22
  54199.075    -5.181E-22
  54199.143    -4.382E-22
  54199.211    -2.168E-22
  54199.279    -9.559E-23
  54199.348    -1.773E-22
  54199.416    -2.183E-22
  54199.484    -1.783E-22
  54199.552    -1.382E-22
  54199.621    -1.388E-22
  54199.689    -7.832E-23
  54199.757    -7.883E-23
  54199.825    -2.214E-22
  54199.893    -3.028E-22
  54199.962    -2.426E-22
  54200.030    -3.240E-22
  54200.098    -3.850E-22
  54200.166    -2.644E-22
  54200.235    -2.134E-23
  54200.303     2.852E-22
  54200.371     2.847E-22
  54200.439     2.020E-22
  54200.507     1.810E-22
  54200.576     1.190E-22
  54200.644    -4.476E-23
  54200.712    -6.562E-23
  54200.780    -5.033E-24
  54200.849     1.579E-22
  54200.917     3.218E-22
  54200.985     4.450E-22
  54201.053     5.895E-22
  54201.122     9.019E-22
  54201.190     1.006E-21
  54201.258     9.428E-22
  54201.326     9.213E-22
  54201.394     6.493E-22
  54201.463     3.795E-22
  54201.531     1.733E-22
  54201.599     1.114E-22
  54201.667    -3.204E-23
  54201.736    -9.361E-23
  54201.804    -2.159E-22
  54201.872    -4.586E-22
  54201.940    -5.595E-22
  54202.008    -2.174E-22
  54202.077     4.650E-23
  54202.145     2.509E-22
  54202.213     3.327E-22
  54202.281     3.528E-22
  54202.350     2.083E-22
  54202.418     1.257E-22
  54202.486     1.867E-22
  54202.554     8.380E-23
  54202.623    -7.989E-23
  54202.691    -1.820E-22
  54202.759    -1.216E-22
  54202.827     1.432E-22
  54202.895     2.042E-22
  54202.964     8.074E-23
  54203.032    -1.462E-24
  54203.100    -1.444E-22
  54203.168    -2.261E-22
  54203.237    -6.413E-23
  54203.305     9.865E-23
  54203.373    -6.515E-23
  54203.441    -2.484E-22
  54203.510    -4.105E-22
  54203.578    -4.915E-22
  54203.646    -5.121E-22
  54203.714    -3.515E-22
  54203.783    -2.307E-22
  54203.851    -1.297E-22
  54203.919    -6.923E-23
  54203.987    -1.917E-22
  54204.055    -1.922E-22
  54204.124    -1.318E-22
  54204.192    -5.090E-23
  54204.260     3.018E-23
  54204.328     7.054E-23
  54204.397     1.110E-22
  54204.465     1.309E-22
  54204.533     2.125E-22
  54204.601     2.120E-22
  54204.670     1.704E-22
  54204.738     1.289E-22
  54204.806    -2.181E-22
  54204.874    -5.213E-22
  54204.943    -6.220E-22
  54205.011    -6.226E-22
  54205.079    -3.617E-22
  54205.147    -3.766E-23
  54205.216     2.279E-22
  54205.284     4.543E-22
  54205.352     4.331E-22
  54205.420     2.675E-22
  54205.488     2.464E-22
  54205.557     2.459E-22
  54205.625     3.690E-22
  54205.693     4.305E-22
  54205.761     2.855E-22
  54205.830     1.207E-22
  54205.898     2.639E-22
  54205.966     5.320E-22
  54206.034     7.188E-22
  54206.103     5.725E-22
  54206.171     2.413E-22
  54206.239    -2.085E-22
  54206.307    -4.112E-22
  54206.376    -4.520E-22
  54206.444    -3.719E-22
  54206.512    -6.825E-23
  54206.580     1.972E-22
  54206.649     2.378E-22
  54206.717     2.990E-22
  54206.785     2.162E-22
  54206.853     2.568E-22
  54206.922     1.741E-22
  54206.990     2.147E-22
  54207.058     2.553E-22
  54207.126     3.785E-22
  54207.195     4.814E-22
  54207.263     4.188E-22
  54207.331     2.121E-22
  54207.399    -5.450E-23
  54207.468    -1.365E-22
  54207.536    -1.166E-22
  54207.604    -9.678E-23
  54207.672    -1.380E-22
  54207.741     6.549E-23
  54207.809     2.702E-22
  54207.877     3.109E-22
  54207.945     2.486E-22
  54208.014     2.118E-24
  54208.082    -1.817E-22
  54208.150    -2.633E-22
  54208.218    -4.457E-22
  54208.287    -7.071E-22
  54208.355    -8.273E-22
  54208.423    -7.480E-22
  54208.491    -6.486E-22
  54208.560    -5.488E-22
  54208.628    -6.095E-22
  54208.696    -6.501E-22
  54208.764    -3.287E-22
  54208.833    -2.443E-23
  54208.901     2.827E-22
  54208.969     5.303E-22
  54209.037     4.262E-22
  54209.106     4.671E-22
  54209.174     6.120E-22
  54209.242     5.906E-22
  54209.310     3.621E-22
  54209.379     7.370E-23
  54209.447    -4.943E-23
  54209.515    -9.071E-23
  54209.583     1.081E-23
  54209.652    -1.528E-22
  54209.720    -4.771E-22
  54209.788    -6.983E-22
  54209.856    -7.388E-22
  54209.925    -5.590E-22
  54209.993    -3.176E-22
  54210.061    -9.479E-23
  54210.129     4.762E-23
  54210.198     1.291E-22
  54210.266     4.660E-23
  54210.334    -1.782E-22
  54210.402    -3.004E-22
  54210.471    -3.616E-22
  54210.539    -4.429E-22
  54210.607    -3.424E-22
  54210.675    -9.939E-23
  54210.744     6.349E-23
  54210.812     1.245E-22
  54210.880     2.267E-22
  54210.948     2.673E-22
  54211.017     2.257E-22
  54211.085     1.635E-22
  54211.153     1.014E-22
  54211.221     1.419E-22
  54211.290     2.854E-22
  54211.358     3.675E-22
  54211.426     4.083E-22
  54211.494     4.078E-22
  54211.563     3.866E-22
  54211.631     1.594E-22
  54211.699    -2.546E-23
  54211.768    -5.539E-24
  54211.836     1.990E-22
  54211.904     4.047E-22
  54211.972     3.629E-22
  54212.041     1.769E-22
  54212.109     3.280E-23
  54212.177    -6.986E-23
  54212.245    -2.955E-23
