 18O2;(10,0);79K;54575-905 cm-1;4744 pts
     WNO         SIGMA 
  54575.088    -3.840E-22
  54575.157     1.872E-22
  54575.226     6.803E-22
  54575.296     8.862E-22
  54575.365     6.370E-22
  54575.434     1.422E-22
  54575.504    -3.084E-22
  54575.573    -2.686E-22
  54575.642     1.803E-22
  54575.712     5.083E-22
  54575.781     9.623E-22
  54575.850     1.252E-21
  54575.919     1.335E-21
  54575.989     1.084E-21
  54576.058     7.512E-22
  54576.127     5.437E-22
  54576.197     5.427E-22
  54576.266     3.358E-22
  54576.335     1.705E-22
  54576.405     8.749E-23
  54576.474     8.651E-23
  54576.543    -1.191E-22
  54576.612    -1.609E-22
  54576.682    -3.251E-22
  54576.751    -6.108E-22
  54576.820    -6.929E-22
  54576.890    -8.558E-22
  54576.959    -5.325E-22
  54577.028     3.250E-22
  54577.097     4.063E-22
  54577.167     1.587E-22
  54577.236     1.167E-22
  54577.305     1.157E-22
  54577.375     1.558E-22
  54577.444     4.426E-22
  54577.513     9.377E-22
  54577.583     1.771E-21
  54577.652     1.770E-21
  54577.721     1.727E-21
  54577.790     1.350E-21
  54577.860     5.604E-22
  54577.929     1.069E-22
  54577.998     1.059E-22
  54578.068     2.691E-22
  54578.137     4.740E-22
  54578.206     5.968E-22
  54578.276     8.440E-22
  54578.345     1.092E-21
  54578.414     1.466E-21
  54578.483     1.717E-21
  54578.553     1.548E-21
  54578.622     1.213E-21
  54578.691     8.795E-22
  54578.761     7.957E-22
  54578.830     6.705E-22
  54578.899     4.631E-22
  54578.969     4.210E-22
  54579.038     4.200E-22
  54579.107     4.190E-22
  54579.177     5.830E-22
  54579.246     4.170E-22
  54579.315     2.514E-22
  54579.384     1.272E-22
  54579.454    -3.767E-23
  54579.523     2.074E-22
  54579.592    -1.215E-22
  54579.662    -7.737E-22
  54579.731    -9.770E-22
  54579.800    -8.971E-22
  54579.870    -5.738E-22
  54579.939    -1.264E-22
  54580.008     1.184E-22
  54580.077     1.174E-22
  54580.147    -6.554E-24
  54580.216    -2.529E-22
  54580.285    -7.015E-22
  54580.355    -6.619E-22
  54580.424    -5.410E-22
  54580.493    -1.147E-23
  54580.563     4.396E-22
  54580.632     6.037E-22
  54580.701     3.140E-22
  54580.771     1.897E-22
  54580.840     6.558E-23
  54580.909     2.360E-23
  54580.978     1.046E-22
  54581.048    -1.934E-23
  54581.117    -1.022E-22
  54581.186    -6.225E-23
  54581.256    -1.042E-22
  54581.325     5.870E-23
  54581.394     2.631E-22
  54581.464     3.444E-22
  54581.533    -1.081E-22
  54581.602    -3.541E-22
  54581.672    -2.327E-22
  54581.741    -2.337E-22
  54581.810    -1.529E-22
  54581.879     9.836E-24
  54581.949    -2.775E-22
  54582.018    -3.600E-22
  54582.087    -1.569E-22
  54582.157     4.690E-23
  54582.226     3.336E-22
  54582.295     2.503E-22
  54582.365     1.260E-22
  54582.434     8.398E-23
  54582.503    -1.219E-22
  54582.573    -6.933E-22
  54582.642    -1.300E-21
  54582.711    -1.543E-21
  54582.781    -1.584E-21
  54582.850    -1.585E-21
  54582.919    -1.184E-21
  54582.988    -6.586E-22
  54583.058    -1.297E-22
  54583.127    -2.534E-22
  54583.196    -8.238E-22
  54583.266    -1.148E-21
  54583.335    -1.068E-21
  54583.404    -9.078E-22
  54583.474    -4.215E-22
  54583.543     4.385E-22
  54583.612     8.512E-22
  54583.682     8.502E-22
  54583.751     6.835E-22
  54583.820     2.286E-22
  54583.890     2.276E-22
  54583.959     6.391E-22
  54584.028     5.968E-22
  54584.097     5.132E-22
  54584.167     5.122E-22
  54584.236     5.525E-22
  54584.305     3.452E-22
  54584.375     3.031E-22
  54584.444     4.670E-22
  54584.513     5.073E-22
  54584.583     4.650E-22
  54584.652     5.053E-22
  54584.721     4.630E-22
  54584.791     4.208E-22
  54584.860     4.611E-22
  54584.929     5.014E-22
  54584.999     2.942E-22
  54585.068    -3.542E-23
  54585.137    -2.819E-22
  54585.207    -7.713E-22
  54585.276    -7.723E-22
  54585.345    -1.622E-22
  54585.414     6.185E-22
  54585.484     1.282E-21
  54585.553     1.700E-21
  54585.622     1.699E-21
  54585.692     1.489E-21
  54585.761     1.112E-21
  54585.830     8.612E-22
  54585.900     8.602E-22
  54585.969     1.150E-21
  54586.038     1.191E-21
  54586.108     1.107E-21
  54586.177     8.978E-22
  54586.246     5.240E-22
  54586.316     2.755E-22
  54586.385     2.745E-22
  54586.454    -1.411E-23
  54586.524    -1.509E-23
  54586.593    -9.805E-23
  54586.662    -1.400E-22
  54586.732     1.873E-22
  54586.801     5.574E-22
  54586.870     5.151E-22
  54586.940     3.490E-22
  54587.009    -1.858E-22
  54587.078    -3.911E-22
  54587.147    -6.771E-22
  54587.217    -7.187E-22
  54587.286    -5.163E-22
  54587.355    -5.580E-22
  54587.425    -4.776E-22
  54587.494    -2.888E-23
  54587.563     7.951E-22
  54587.633     1.419E-21
  54587.702     1.796E-21
  54587.771     1.879E-21
  54587.841     1.794E-21
  54587.910     1.835E-21
  54587.979     1.582E-21
  54588.049     1.330E-21
  54588.118     9.118E-22
  54588.187     3.313E-22
  54588.257    -1.217E-22
  54588.326    -2.454E-22
  54588.395    -2.464E-22
  54588.465    -4.108E-22
  54588.534    -6.968E-22
  54588.603    -4.943E-22
  54588.673    -4.545E-22
  54588.742    -4.963E-22
  54588.811    -3.749E-22
  54588.881     2.803E-22
  54588.950     7.339E-22
  54589.019     8.574E-22
  54589.089     1.106E-21
  54589.158     8.970E-22
  54589.227     7.715E-22
  54589.297     8.120E-22
  54589.366     1.186E-21
  54589.435     1.519E-21
  54589.505     1.393E-21
  54589.574     1.141E-21
  54589.643     1.098E-21
  54589.713     9.723E-22
  54589.782     7.221E-22
  54589.851     4.728E-22
  54589.920     6.787E-22
  54589.990     6.363E-22
  54590.059     5.525E-22
  54590.128     1.390E-22
  54590.198    -1.083E-22
  54590.267    -4.772E-22
  54590.336    -6.004E-22
  54590.406    -3.159E-22
  54590.475    -3.168E-22
  54590.544    -3.995E-22
  54590.614    -7.320E-23
  54590.683     3.371E-22
  54590.752     8.328E-22
  54590.822     1.165E-21
  54590.891     8.724E-22
  54590.960     5.811E-22
  54591.030     4.560E-22
  54591.099     2.075E-22
  54591.168     2.066E-22
  54591.238     1.233E-22
  54591.307    -3.695E-22
  54591.376    -1.250E-22
  54591.446     3.263E-22
  54591.515     6.146E-22
  54591.584     7.380E-22
  54591.654     8.200E-22
  54591.723     2.811E-22
  54591.792    -1.309E-22
  54591.862    -4.182E-22
  54591.931    -6.637E-22
  54592.000    -5.833E-22
  54592.070    -4.620E-22
  54592.139    -2.178E-22
  54592.208     3.567E-22
  54592.278     7.696E-22
  54592.347     7.686E-22
  54592.416     9.755E-22
  54592.486     1.267E-21
  54592.555     1.182E-21
  54592.624     7.647E-22
  54592.694     7.637E-22
  54592.763     6.383E-22
  54592.832     3.065E-22
  54592.902     1.742E-23
  54592.971    -2.705E-22
  54593.040    -1.077E-22
  54593.110    -6.765E-23
  54593.179    -2.735E-22
  54593.248    -6.962E-23
  54593.318     5.062E-22
  54593.387     9.201E-22
  54593.456     1.002E-21
  54593.526     1.168E-21
  54593.595     8.755E-22
  54593.664     4.186E-22
  54593.734     2.525E-22
  54593.803     3.753E-22
  54593.872     6.640E-22
  54593.942     9.538E-22
  54594.011     9.112E-22
  54594.080     4.126E-22
  54594.150     4.076E-23
  54594.219     2.456E-22
  54594.288     1.210E-22
  54594.358    -2.493E-22
  54594.427    -2.503E-22
  54594.496     7.695E-23
  54594.566     1.583E-22
  54594.635     5.702E-22
  54594.704     8.182E-22
  54594.774     1.485E-21
  54594.843     2.116E-21
  54594.913     2.455E-21
  54594.982     2.667E-21
  54595.051     2.325E-21
  54595.121     1.648E-21
  54595.190     1.019E-21
  54595.259     8.935E-22
  54595.329     9.757E-22
  54595.398     8.915E-22
  54595.467     3.929E-22
  54595.537     1.445E-22
  54595.606     1.435E-22
  54595.675     1.837E-22
  54595.745     3.890E-22
  54595.814     5.949E-22
  54595.883     5.939E-22
  54595.953     3.860E-22
  54596.022     1.376E-22
  54596.091     5.427E-23
  54596.161    -1.110E-22
  54596.230    -4.395E-22
  54596.299    -1.540E-22
  54596.369     3.388E-22
  54596.438     4.205E-22
  54596.507     6.265E-22
  54596.577     7.085E-22
  54596.646     7.075E-22
  54596.715     1.039E-21
  54596.785     1.122E-21
  54596.854     7.876E-22
  54596.923     3.309E-22
  54596.993    -4.076E-23
  54597.062    -4.175E-23
  54597.131     2.454E-22
  54597.201     5.752E-22
  54597.270     4.913E-22
  54597.339     7.807E-22
  54597.409     1.322E-21
  54597.478     1.615E-21
  54597.548     1.698E-21
  54597.617     1.487E-21
  54597.686     6.512E-22
  54597.756     3.604E-22
  54597.825     1.531E-22
  54597.894    -5.359E-23
  54597.964    -5.457E-23
  54598.033    -9.663E-23
  54598.102    -4.662E-22
  54598.172    -2.626E-22
  54598.241    -1.743E-23
  54598.310    -5.951E-23
  54598.380     4.342E-22
  54598.449     4.746E-22
  54598.518     7.639E-22
  54598.588     1.431E-21
  54598.657     1.556E-21
  54598.726     1.429E-21
  54598.796     1.010E-21
  54598.865     3.446E-22
  54598.934    -6.839E-23
  54599.004    -1.925E-22
  54599.073     2.590E-22
  54599.142     7.135E-22
  54599.212     1.087E-21
  54599.281     1.421E-21
  54599.351     1.127E-21
  54599.420     6.265E-22
  54599.489     5.012E-22
  54599.559     6.245E-22
  54599.628     5.821E-22
  54599.697     2.089E-22
  54599.767     4.558E-22
  54599.836     5.377E-22
  54599.905     9.106E-22
  54599.975     1.244E-21
  54600.044     1.326E-21
  54600.113     1.284E-21
  54600.183     1.115E-21
  54600.252     9.057E-22
  54600.321     5.308E-22
  54600.391     5.712E-22
  54600.460     8.611E-22
  54600.529     1.152E-21
  54600.599     9.841E-22
  54600.668     6.088E-22
  54600.738     1.941E-22
  54600.807     2.344E-22
  54600.876     5.643E-22
  54600.946     3.977E-22
  54601.015    -1.579E-23
  54601.084    -5.494E-22
  54601.154    -9.574E-22
  54601.223    -9.584E-22
  54601.292    -6.747E-22
  54601.362    -1.029E-22
  54601.431     4.735E-22
  54601.500     8.046E-22
  54601.570     7.205E-22
  54601.639     5.120E-22
  54601.708     3.454E-22
  54601.778     3.858E-22
  54601.847     1.783E-22
  54601.917     1.361E-22
  54601.986     1.763E-22
  54602.055     1.753E-22
  54602.125     9.546E-24
  54602.194    -3.199E-22
  54602.263    -4.845E-22
  54602.333    -5.264E-22
  54602.402    -5.682E-22
  54602.471    -9.356E-22
  54602.541    -1.099E-21
  54602.610    -1.019E-21
  54602.679    -6.537E-22
  54602.749    -2.048E-22
  54602.818    -3.292E-25
  54602.888    -3.707E-22
  54602.957    -5.761E-22
  54603.026    -4.136E-22
  54603.096    -1.276E-22
  54603.165     3.590E-23
  54603.234     7.609E-23
  54603.304    -1.306E-22
  54603.373    -1.316E-22
  54603.442     4.863E-22
  54603.512     9.010E-22
  54603.581     1.151E-21
  54603.650     1.150E-21
  54603.720     8.980E-22
  54603.789     6.473E-22
  54603.859     5.218E-22
  54603.928     7.285E-22
  54603.997     6.444E-22
  54604.067     3.532E-22
  54604.136     4.350E-22
  54604.205     3.512E-22
  54604.275     3.916E-22
  54604.344     4.321E-22
  54604.413     5.139E-22
  54604.483     5.959E-22
  54604.552     3.877E-22
  54604.622     3.040E-22
  54604.691     3.030E-22
  54604.760     9.249E-22
  54604.830     1.426E-21
  54604.899     1.299E-21
  54604.968     8.802E-22
  54605.038     4.222E-22
  54605.107     2.557E-22
  54605.176     3.374E-22
  54605.246     3.364E-22
  54605.315     6.256E-22
  54605.384     7.910E-22
  54605.454     6.652E-22
  54605.523     7.474E-22
  54605.593     9.547E-22
  54605.662     9.955E-22
  54605.731     1.539E-21
  54605.801     1.707E-21
  54605.870     1.875E-21
  54605.939     2.255E-21
  54606.009     2.595E-21
  54606.078     2.637E-21
  54606.147     2.508E-21
  54606.217     2.550E-21
  54606.286     2.891E-21
  54606.356     2.804E-21
  54606.425     2.718E-21
  54606.494     2.460E-21
  54606.564     1.738E-21
  54606.633     1.400E-21
  54606.702     1.357E-21
  54606.772     1.651E-21
  54606.841     1.861E-21
  54606.911     1.987E-21
  54606.980     1.986E-21
  54607.049     1.774E-21
  54607.119     1.478E-21
  54607.188     1.183E-21
  54607.257     1.056E-21
  54607.327     9.300E-22
  54607.396     9.708E-22
  54607.465     7.613E-22
  54607.535     8.436E-22
  54607.604     1.051E-21
  54607.674     1.134E-21
  54607.743     1.091E-21
  54607.812     1.090E-21
  54607.882     9.639E-22
  54607.951     1.214E-21
  54608.020     1.675E-21
  54608.090     2.055E-21
  54608.159     2.394E-21
  54608.229     2.308E-21
  54608.298     1.840E-21
  54608.367     1.376E-21
  54608.437     9.559E-22
  54608.506     7.049E-22
  54608.575     4.961E-22
  54608.645     8.146E-23
  54608.714     3.923E-23
  54608.783    -2.497E-22
  54608.853    -2.918E-22
  54608.922    -4.944E-24
  54608.992     7.651E-23
  54609.061     1.994E-22
  54609.130     1.984E-22
  54609.200    -9.125E-23
  54609.269    -5.843E-22
  54609.338    -9.522E-22
  54609.408    -9.532E-22
  54609.477    -1.035E-21
  54609.547    -1.077E-21
  54609.616    -1.402E-21
  54609.685    -8.758E-22
  54609.755    -3.046E-22
  54609.824     2.712E-22
  54609.893     5.604E-22
  54609.963     3.106E-22
  54610.032    -2.077E-23
  54610.102    -6.294E-23
  54610.171    -2.695E-22
  54610.240    -1.883E-22
  54610.310     1.403E-22
  54610.379     4.289E-22
  54610.448     7.188E-22
  54610.518     6.346E-22
  54610.587     1.363E-22
  54610.657    -3.585E-22
  54610.726    -6.051E-22
  54610.795    -7.286E-22
  54610.865    -1.136E-21
  54610.934    -1.421E-21
  54611.003    -1.422E-21
  54611.073    -1.382E-21
  54611.142    -5.293E-22
  54611.212    -1.199E-22
  54611.281    -3.857E-23
  54611.350     2.494E-22
  54611.420     7.049E-22
  54611.489     1.038E-21
  54611.558     1.162E-21
  54611.628     1.624E-21
  54611.697     1.834E-21
  54611.767     1.327E-21
  54611.836     1.158E-21
  54611.905     1.032E-21
  54611.975     1.031E-21
  54612.044     1.072E-21
  54612.113     9.035E-22
  54612.183     9.861E-22
  54612.252     1.027E-21
  54612.322     1.110E-21
  54612.391     1.740E-21
  54612.460     1.823E-21
  54612.530     1.695E-21
  54612.599     1.484E-21
  54612.668     1.105E-21
  54612.738     9.782E-22
  54612.807     5.188E-22
  54612.877     2.690E-22
  54612.946     4.753E-22
  54613.015     9.324E-22
  54613.085     9.314E-22
  54613.154     5.139E-22
  54613.223    -1.075E-22
  54613.293    -5.599E-22
  54613.362    -5.200E-22
  54613.432    -1.927E-22
  54613.501     1.361E-22
  54613.570     5.910E-22
  54613.640     9.235E-22
  54613.709     7.139E-22
  54613.779     3.390E-22
  54613.848    -1.987E-22
  54613.917    -2.408E-22
  54613.987     8.782E-23
  54614.056     5.010E-22
  54614.125     7.497E-22
  54614.195     5.821E-22
  54614.264    -3.992E-23
  54614.334    -4.519E-22
  54614.403    -8.208E-22
  54614.472    -9.847E-22
  54614.542    -1.189E-21
  54614.611    -1.190E-21
  54614.681    -7.840E-22
  54614.750    -4.989E-22
  54614.819    -4.589E-22
  54614.889    -2.546E-22
  54614.958     1.153E-22
  54615.027     3.626E-22
  54615.097     1.960E-22
  54615.166     1.950E-22
  54615.236     2.354E-22
  54615.305     2.344E-22
  54615.374     3.577E-22
  54615.444     2.738E-22
  54615.513     1.073E-22
  54615.583    -2.234E-22
  54615.652    -3.477E-22
  54615.721    -2.665E-22
  54615.791    -2.675E-22
  54615.860    -1.451E-22
  54615.929    -1.049E-22
  54615.999     1.783E-23
  54616.068     1.408E-22
  54616.138     5.128E-22
  54616.207     8.034E-22
  54616.276     7.190E-22
  54616.346     3.438E-22
  54616.415     3.428E-22
  54616.485     4.248E-22
  54616.554     2.166E-22
  54616.623    -2.383E-22
  54616.693    -3.215E-22
  54616.762    -1.991E-22
  54616.831    -3.532E-23
  54616.901     2.944E-22
  54616.970     2.106E-22
  54617.040    -2.031E-22
  54617.109    -2.452E-22
  54617.178    -1.639E-22
  54617.248    -1.649E-22
  54617.317     1.229E-22
  54617.387     7.865E-22
  54617.456     1.456E-21
  54617.525     1.624E-21
  54617.595     1.497E-21
  54617.664     1.622E-21
  54617.734     1.790E-21
  54617.803     1.874E-21
  54617.872     1.873E-21
  54617.942     1.365E-21
  54618.011     1.238E-21
  54618.080     1.069E-21
  54618.150     9.428E-22
  54618.219     5.663E-22
  54618.289    -9.735E-23
  54618.358    -7.549E-22
  54618.427    -1.122E-21
  54618.497    -1.001E-21
  54618.566    -5.533E-22
  54618.636    -1.435E-22
  54618.705    -3.091E-22
  54618.774    -3.923E-22
  54618.844    -3.111E-22
  54618.913    -1.475E-22
  54618.983    -1.073E-22
  54619.052    -1.495E-22
  54619.121    -2.675E-23
  54619.191    -1.102E-22
  54619.260    -1.524E-22
  54619.330     9.420E-23
  54619.399     3.002E-22
  54619.468     2.992E-22
  54619.538     3.397E-22
  54619.607     9.024E-23
  54619.677     8.925E-23
  54619.746    -2.006E-22
  54619.815    -5.302E-22
  54619.885    -9.806E-22
  54619.954    -1.388E-21
  54620.024    -1.631E-21
  54620.093    -1.874E-21
  54620.162    -1.674E-21
  54620.232    -1.229E-21
  54620.301    -5.371E-22
  54620.370    -2.918E-22
  54620.440    -8.684E-23
  54620.509     1.601E-22
  54620.579     2.834E-22
  54620.648     4.900E-22
  54620.717     1.985E-22
  54620.787    -2.154E-22
  54620.856    -4.220E-22
  54620.926    -6.280E-22
  54620.995    -6.699E-22
  54621.064    -4.250E-22
  54621.134    -6.309E-22
  54621.203    -8.771E-22
  54621.273    -1.204E-21
  54621.342    -1.164E-21
  54621.411    -8.801E-22
  54621.481    -1.003E-21
  54621.550    -5.140E-22
  54621.620     1.442E-22
  54621.689     9.759E-22
  54621.758     1.691E-21
  54621.828     1.647E-21
  54621.897     1.015E-21
  54621.967     3.050E-22
  54622.036    -1.921E-22
  54622.105    -3.577E-22
  54622.175     5.356E-23
  54622.244     4.672E-22
  54622.314     3.831E-22
  54622.383     1.333E-22
  54622.452    -7.433E-23
  54622.522    -3.225E-22
  54622.591    -5.288E-22
  54622.661    -6.937E-22
  54622.730    -8.173E-22
  54622.799    -6.547E-22
  54622.869    -4.918E-22
  54622.938    -3.696E-22
  54623.008    -2.883E-22
  54623.077    -4.197E-23
  54623.146    -4.296E-23
  54623.216    -8.523E-23
  54623.285    -1.275E-22
  54623.355    -4.987E-22
  54623.424    -7.864E-22
  54623.493    -9.098E-22
  54623.563    -9.108E-22
  54623.632    -8.302E-22
  54623.702    -9.128E-22
  54623.771    -1.036E-21
  54623.841    -8.740E-22
  54623.910    -6.706E-22
  54623.979    -4.255E-22
  54624.049    -1.455E-23
  54624.118    -1.806E-22
  54624.188    -4.696E-22
  54624.257    -8.800E-22
  54624.326    -1.207E-21
  54624.396    -1.167E-21
  54624.465    -1.046E-21
  54624.535    -5.566E-22
  54624.604    -6.805E-22
  54624.673    -9.675E-22
  54624.743    -9.685E-22
  54624.812    -5.196E-22
  54624.882     1.390E-22
  54624.951     4.285E-22
  54625.020     6.358E-22
  54625.090     4.681E-22
  54625.159     2.179E-22
  54625.229     2.169E-22
  54625.298     3.404E-22
  54625.367     3.810E-22
  54625.437     1.725E-22
  54625.506    -2.417E-22
  54625.576    -4.484E-22
  54625.645    -5.315E-22
  54625.714    -5.325E-22
  54625.784    -5.745E-22
  54625.853    -3.701E-22
  54625.923     8.273E-23
  54625.992     2.890E-22
  54626.062     2.880E-22
  54626.131     3.838E-23
  54626.200    -3.339E-22
  54626.270    -5.814E-22
  54626.339    -6.234E-22
  54626.409    -8.290E-22
  54626.478    -9.933E-22
  54626.547    -5.854E-22
  54626.617    -2.987E-22
  54626.686    -1.092E-23
  54626.756     2.945E-23
  54626.825    -9.554E-23
  54626.894     2.346E-22
  54626.964     6.080E-22
  54627.033     8.577E-22
  54627.103     8.986E-22
  54627.172     4.384E-22
  54627.242     2.711E-22
  54627.311     3.117E-22
  54627.380     6.020E-22
  54627.450     9.355E-22
  54627.519     8.507E-22
  54627.589     5.574E-22
  54627.658     4.314E-22
  54627.727     1.812E-22
  54627.797    -2.744E-22
  54627.866    -4.400E-22
  54627.936    -1.114E-22
  54628.005    -2.362E-22
  54628.074    -1.547E-22
  54628.144    -7.309E-23
