 18O2;(6,0);79K;52724-3010 cm-1;4428 pts
      WNO        SIGMA
  52724.085     1.341E-22
  52724.149     1.155E-22
  52724.213     1.031E-22
  52724.277     5.998E-23
  52724.341     8.450E-23
  52724.406     1.029E-22
  52724.470     9.670E-23
  52724.534     4.135E-23
  52724.598     7.197E-23
  52724.663     1.027E-22
  52724.727     9.031E-23
  52724.791     7.180E-23
  52724.855     3.494E-23
  52724.920     4.101E-23
  52724.984     5.321E-23
  52725.048     4.702E-23
  52725.112     4.142E-24
  52725.177    -3.247E-23
  52725.241    -3.253E-23
  52725.305    -2.650E-23
  52725.369    -5.694E-23
  52725.434    -5.093E-23
  52725.498     2.213E-23
  52725.562     6.497E-23
  52725.626     1.018E-22
  52725.691     1.018E-22
  52725.755     1.326E-22
  52725.819     1.263E-22
  52725.883     1.016E-22
  52725.947     5.848E-23
  52726.012    -2.714E-23
  52726.076    -7.576E-23
  52726.140    -8.188E-23
  52726.204    -2.731E-23
  52726.269     9.210E-24
  52726.333     7.656E-23
  52726.397     1.135E-22
  52726.461     1.072E-22
  52726.526     4.569E-23
  52726.590     8.922E-24
  52726.654     3.945E-23
  52726.718     8.237E-23
  52726.783     1.486E-23
  52726.847    -6.434E-23
  52726.911    -8.257E-23
  52726.975    -6.445E-23
  52727.040    -4.023E-23
  52727.104    -3.747E-24
  52727.168     1.451E-23
  52727.232     8.345E-24
  52727.297    -4.653E-23
  52727.361    -5.266E-23
  52727.425    -3.449E-23
  52727.489    -4.063E-23
  52727.554    -2.852E-23
  52727.618    -2.249E-23
  52727.682     4.466E-23
  52727.746     9.992E-23
  52727.811     8.139E-23
  52727.875     8.133E-23
  52727.939     8.743E-23
  52728.003     1.244E-22
  52728.068     1.615E-22
  52728.132     1.862E-22
  52728.196     1.924E-22
  52728.260     1.613E-22
  52728.325     9.940E-23
  52728.389     4.402E-23
  52728.453    -4.958E-24
  52728.517     1.942E-23
  52728.582     1.053E-22
  52728.646     1.176E-22
  52728.710     9.289E-23
  52728.774     4.981E-23
  52728.839    -1.140E-23
  52728.903    -8.436E-23
  52728.967    -7.230E-23
  52729.031    -2.376E-23
  52729.096    -1.163E-23
  52729.160    -2.388E-23
  52729.224    -5.434E-23
  52729.288    -6.653E-23
  52729.353    -3.014E-23
  52729.417     6.385E-24
  52729.481     4.917E-23
  52729.545     8.599E-23
  52729.610     6.133E-23
  52729.674     3.674E-23
  52729.738     3.056E-23
  52729.802     5.502E-23
  52729.867     8.570E-23
  52729.931     3.651E-23
  52729.995    -5.503E-23
  52730.059    -4.294E-23
  52730.124    -4.907E-23
  52730.188    -3.089E-23
  52730.252    -2.486E-23
  52730.316    -5.287E-25
  52730.381     2.998E-23
  52730.445     7.902E-23
  52730.509     1.469E-22
  52730.573     1.221E-22
  52730.638     1.035E-22
  52730.702     7.879E-23
  52730.766     4.802E-23
  52730.830     6.638E-23
  52730.895     1.156E-22
  52730.959     9.704E-23
  52731.023     2.940E-23
  52731.087     7.230E-23
  52731.152     1.092E-22
  52731.216     1.524E-22
  52731.280     2.083E-22
  52731.344     2.145E-22
  52731.409     1.399E-22
  52731.473     1.089E-22
  52731.537     1.027E-22
  52731.601     1.397E-22
  52731.666     1.831E-22
  52731.730     1.582E-22
  52731.794     1.210E-22
  52731.859     1.086E-22
  52731.923     1.270E-22
  52731.987     1.394E-22
  52732.051     1.765E-22
  52732.116     2.013E-22
  52732.180     2.013E-22
  52732.244     1.825E-22
  52732.308     1.205E-22
  52732.373     3.432E-23
  52732.437     4.652E-23
  52732.501     7.103E-23
  52732.565     6.482E-23
  52732.630     7.706E-23
  52732.694     8.316E-23
  52732.758     7.695E-23
  52732.822     6.459E-23
  52732.887    -2.113E-23
  52732.951    -5.768E-23
  52733.015    -5.774E-23
  52733.079    -2.130E-23
  52733.144     1.526E-23
  52733.208     6.425E-23
  52733.272     1.196E-22
  52733.337     1.629E-22
  52733.401     1.567E-22
  52733.465     1.566E-22
  52733.529     2.001E-22
  52733.594     1.938E-22
  52733.658     1.999E-22
  52733.722     1.750E-22
  52733.786     1.254E-22
  52733.851     1.068E-22
  52733.915     1.129E-22
  52733.979     8.816E-23
  52734.043     5.735E-23
  52734.108    -2.223E-23
  52734.172    -2.229E-23
  52734.236     2.652E-23
  52734.301     1.249E-22
  52734.365     1.806E-22
  52734.429     1.806E-22
  52734.493     1.124E-22
  52734.558     6.918E-23
  52734.622     4.456E-23
  52734.686     9.986E-23
  52734.750     1.431E-22
  52734.815     1.306E-22
  52734.879     1.182E-22
  52734.943     5.654E-23
  52735.007    -5.953E-23
  52735.072    -1.261E-22
  52735.136    -1.322E-22
  52735.200    -1.383E-22
  52735.265    -8.401E-23
  52735.329     2.554E-23
  52735.393     8.689E-23
  52735.457     9.300E-23
  52735.522     6.832E-23
  52735.586     4.369E-23
  52735.650    -2.361E-23
  52735.714    -6.623E-23
  52735.779    -6.629E-23
  52735.843    -7.847E-23
  52735.907    -4.211E-23
  52735.971    -1.171E-23
  52736.036     4.424E-25
  52736.100     6.780E-23
  52736.164     1.047E-22
  52736.229     9.847E-23
  52736.293     1.108E-22
  52736.357     1.602E-22
  52736.421     1.912E-22
  52736.486     2.036E-22
  52736.550     1.725E-22
  52736.614     1.414E-22
  52736.678     9.807E-23
  52736.743     6.722E-23
  52736.807     3.034E-23
  52736.871    -1.252E-23
  52736.936    -2.477E-23
  52737.000    -2.482E-23
  52737.064    -1.879E-23
  52737.128    -5.387E-25
  52737.193     2.386E-23
  52737.257     3.606E-23
  52737.321     1.763E-23
  52737.386    -6.875E-24
  52737.450    -1.304E-23
  52737.514    -6.991E-24
  52737.578     5.167E-24
  52737.643     1.122E-23
  52737.707     2.953E-23
  52737.771     2.335E-23
  52737.835     4.167E-23
  52737.900     4.161E-23
  52737.964     5.997E-23
  52738.028     9.069E-23
  52738.093     1.339E-22
  52738.157     1.959E-22
  52738.221     1.772E-22
  52738.285     1.399E-22
  52738.350     9.040E-23
  52738.414     2.277E-23
  52738.478    -2.615E-23
  52738.542    -6.877E-23
  52738.607    -8.701E-23
  52738.671    -9.313E-23
  52738.735    -3.856E-23
  52738.800    -3.862E-23
  52738.864    -2.650E-23
  52738.928    -8.261E-24
  52738.992     1.613E-23
  52739.057     7.745E-23
  52739.121     1.206E-22
  52739.185     1.577E-22
  52739.250     7.112E-23
  52739.314    -6.946E-23
  52739.378    -1.841E-22
  52739.442    -2.500E-22
  52739.507    -2.321E-22
  52739.571    -1.362E-22
  52739.635    -6.368E-23
  52739.700    -2.847E-24
  52739.764     8.297E-23
  52739.828     8.291E-23
  52739.892     3.369E-23
  52739.957     9.145E-24
  52740.021    -9.242E-24
  52740.085    -4.586E-23
  52740.150    -2.156E-23
  52740.214     2.728E-23
  52740.278     5.175E-23
  52740.342     1.442E-22
  52740.407     2.376E-22
  52740.471     3.066E-22
  52740.535     3.128E-22
  52740.599     2.499E-22
  52740.664     1.937E-22
  52740.728     1.812E-22
  52740.792     1.562E-22
  52740.857     1.128E-22
  52740.921     9.426E-23
  52740.985     7.571E-23
  52741.049     5.720E-23
  52741.114     3.873E-23
  52741.178     2.029E-23
  52741.242     6.318E-23
  52741.307     1.248E-22
  52741.371     1.744E-22
  52741.435     1.247E-22
  52741.500     9.374E-23
  52741.564     3.219E-23
  52741.628    -4.116E-23
  52741.692    -9.584E-23
  52741.757    -1.562E-22
  52741.821    -1.623E-22
  52741.885    -7.177E-23
  52741.950    -4.145E-23
  52742.014    -8.402E-23
  52742.078    -1.143E-22
  52742.142    -7.807E-23
  52742.207    -2.341E-23
  52742.271     3.769E-23
  52742.335     9.916E-23
  52742.400     1.053E-22
  52742.464     3.138E-23
  52742.528    -4.805E-23
  52742.592    -1.269E-22
  52742.657    -1.269E-22
  52742.721    -4.823E-23
  52742.785    -1.172E-23
  52742.850    -1.788E-23
  52742.914    -3.014E-23
  52742.978    -5.792E-24
  52743.042     2.599E-25
  52743.107    -5.908E-24
  52743.171     4.302E-23
  52743.235     1.478E-22
  52743.300     2.225E-22
  52743.364     2.349E-22
  52743.428     1.849E-22
  52743.492     1.228E-22
  52743.557     1.166E-22
  52743.621     1.599E-22
  52743.685     2.284E-22
  52743.750     2.471E-22
  52743.814     2.721E-22
  52743.878     2.282E-22
  52743.943     1.286E-22
  52744.007     6.069E-23
  52744.071     2.994E-23
  52744.135     6.058E-23
  52744.200     1.284E-22
  52744.264     1.531E-22
  52744.328     1.097E-22
  52744.393     1.220E-22
  52744.457     1.282E-22
  52744.521     1.219E-22
  52744.585     1.033E-22
  52744.650     8.474E-23
  52744.714     4.777E-23
  52744.778    -1.351E-23
  52744.843    -7.443E-23
  52744.907    -1.169E-22
  52744.971    -9.273E-23
  52745.036    -6.853E-23
  52745.100    -7.698E-24
  52745.164     6.581E-23
  52745.228     7.806E-23
  52745.293     2.271E-23
  52745.357     6.563E-23
  52745.421     1.087E-22
  52745.486     1.582E-22
  52745.550     2.267E-22
  52745.614     2.454E-22
  52745.679     2.579E-22
  52745.743     2.453E-22
  52745.807     1.517E-22
  52745.871     1.083E-22
  52745.936     1.703E-22
  52746.000     2.076E-22
  52746.064     1.888E-22
  52746.129     1.514E-22
  52746.193     9.569E-23
  52746.257     4.638E-23
  52746.322     5.862E-23
  52746.386     1.079E-22
  52746.450     1.698E-22
  52746.514     2.823E-22
  52746.579     3.833E-22
  52746.643     3.833E-22
  52746.707     3.832E-22
  52746.772     3.831E-22
  52746.836     3.450E-22
  52746.900     2.505E-22
  52746.965     1.012E-22
  52747.029    -2.164E-23
  52747.093    -7.645E-23
  52747.157    -7.044E-23
  52747.222    -4.618E-23
  52747.286    -1.577E-23
  52747.350    -9.719E-24
  52747.415     3.920E-23
  52747.479     4.529E-23
  52747.543    -3.783E-24
  52747.608    -5.261E-23
  52747.672    -5.875E-23
  52747.736    -3.447E-23
  52747.801    -4.670E-23
  52747.865    -6.500E-23
  52747.929    -6.506E-23
  52747.993    -6.512E-23
  52748.058    -4.085E-23
  52748.122    -2.872E-23
  52748.186    -3.487E-23
  52748.251    -1.663E-23
  52748.315    -1.669E-23
  52748.379    -7.761E-23
  52748.444    -8.979E-23
  52748.508    -7.165E-23
  52748.572    -4.131E-23
  52748.637    -3.528E-23
  52748.701    -3.533E-23
  52748.765    -2.320E-23
  52748.829    -6.587E-23
  52748.894    -1.205E-22
  52748.958    -1.567E-22
  52749.022    -1.266E-22
  52749.087    -7.217E-23
  52749.151    -5.400E-23
  52749.215    -1.750E-23
  52749.280     6.826E-23
  52749.344     9.286E-23
  52749.408     9.898E-23
  52749.473     1.113E-22
  52749.537     9.886E-23
  52749.601     1.297E-22
  52749.665     9.875E-23
  52749.730     1.260E-23
  52749.794    -1.031E-22
  52749.858    -1.695E-22
  52749.923    -1.756E-22
  52749.987    -1.214E-22
  52750.051    -3.655E-23
  52750.116     1.226E-23
  52750.180     4.900E-23
  52750.244     7.972E-23
  52750.309     1.539E-22
  52750.373     2.036E-22
  52750.437     2.098E-22
  52750.502     1.911E-22
  52750.566     1.475E-22
  52750.630     1.164E-22
  52750.694     9.165E-23
  52750.759     7.925E-23
  52750.823     1.162E-22
  52750.887     9.765E-23
  52750.952     1.223E-22
  52751.016     9.753E-23
  52751.080     2.364E-23
  52751.145    -7.019E-24
  52751.209     2.966E-23
  52751.273    -1.021E-24
  52751.338    -6.812E-23
  52751.402    -6.818E-23
  52751.466    -2.563E-23
  52751.531     2.937E-23
  52751.595     6.618E-23
  52751.659     9.695E-23
  52751.724     1.031E-22
  52751.788     1.278E-22
  52751.852     1.525E-22
  52751.916     1.400E-22
  52751.981     1.090E-22
  52752.045     1.275E-22
  52752.109     1.958E-22
  52752.174     2.458E-22
  52752.238     2.395E-22
  52752.302     2.144E-22
  52752.367     2.018E-22
  52752.431     2.143E-22
  52752.495     1.830E-22
  52752.560     1.209E-22
  52752.624     1.146E-22
  52752.688     1.022E-22
  52752.753     9.888E-24
  52752.817    -6.337E-23
  52752.881    -6.343E-23
  52752.946    -3.305E-23
  52753.010    -2.091E-23
  52753.074     1.572E-23
  52753.139     7.712E-23
  52753.203     1.265E-22
  52753.267     1.823E-22
  52753.331     2.135E-22
  52753.396     2.698E-22
  52753.460     2.760E-22
  52753.524     2.446E-22
  52753.589     2.320E-22
  52753.653     2.132E-22
  52753.717     2.069E-22
  52753.782     1.384E-22
  52753.846     8.882E-23
  52753.910     1.073E-22
  52753.975     1.072E-22
  52754.039     8.864E-23
  52754.103     1.009E-22
  52754.168     8.853E-23
  52754.232     7.613E-23
  52754.296     5.145E-23
  52754.361     1.457E-23
  52754.425     2.264E-24
  52754.489    -8.310E-23
  52754.554    -7.708E-23
  52754.618     8.212E-24
  52754.682     1.066E-22
  52754.747     2.060E-22
  52754.811     2.372E-22
  52754.875     1.996E-22
  52754.940     1.684E-22
  52755.004     1.497E-22
  52755.068     1.186E-22
  52755.133     1.310E-22
  52755.197     1.806E-22
  52755.261     1.992E-22
  52755.326     2.117E-22
  52755.390     1.742E-22
  52755.454     8.737E-23
  52755.519     8.114E-23
  52755.583     8.726E-23
  52755.647     1.305E-22
  52755.712     1.677E-22
  52755.776     1.490E-22
  52755.840     9.320E-23
  52755.904     1.318E-23
  52755.969    -2.967E-23
  52756.033    -5.298E-24
  52756.097     3.754E-23
  52756.162     7.440E-23
  52756.226     1.300E-22
  52756.290     1.299E-22
  52756.355     1.113E-22
  52756.419     1.112E-22
  52756.483     1.174E-22
  52756.548     1.421E-22
  52756.612     1.420E-22
  52756.676     1.296E-22
  52756.741     1.047E-22
  52756.805     1.109E-22
  52756.869     1.108E-22
  52756.934     1.293E-22
  52756.998     1.417E-22
  52757.062     1.230E-22
  52757.127     9.822E-23
  52757.191     9.198E-23
  52757.255     1.043E-22
  52757.320     1.042E-22
  52757.384     1.165E-22
  52757.448     1.041E-22
  52757.513     8.552E-23
  52757.577     6.081E-23
  52757.641     5.460E-23
  52757.706     6.685E-23
  52757.770     4.218E-23
  52757.834     1.145E-23
  52757.899     1.139E-23
  52757.963     6.662E-23
  52758.027     1.408E-22
  52758.092     1.718E-22
  52758.156     1.220E-22
  52758.220     6.023E-23
  52758.285     9.718E-23
  52758.349     1.591E-22
  52758.413     1.280E-22
  52758.478     3.540E-23
  52758.542     4.685E-24
  52758.606     4.627E-24
  52758.671     3.523E-23
  52758.735     5.977E-23
  52758.799     3.511E-23
  52758.864     2.892E-23
  52758.928     1.046E-23
  52758.992    -1.841E-24
  52759.057     4.222E-24
  52759.121    -1.956E-24
  52759.186    -5.085E-23
  52759.250    -6.308E-23
  52759.314    -3.268E-23
  52759.379    -2.663E-23
  52759.443    -2.059E-23
  52759.507    -8.420E-24
  52759.572     3.760E-24
  52759.636     4.665E-23
  52759.700     1.021E-22
  52759.765     7.733E-23
  52759.829     4.033E-23
  52759.893     7.721E-23
  52759.958     9.567E-23
  52760.022     5.861E-23
  52760.086     7.087E-23
  52760.151     6.465E-23
  52760.215     9.544E-23
  52760.279     1.201E-22
  52760.344     1.387E-22
  52760.408     1.759E-22
  52760.472     1.386E-22
  52760.537     1.199E-22
  52760.601     8.892E-23
  52760.665     3.958E-23
  52760.730     2.724E-23
  52760.794     2.661E-24
  52760.858    -5.844E-23
  52760.923    -8.281E-23
  52760.987    -1.192E-22
  52761.051    -1.132E-22
  52761.116    -1.012E-22
  52761.180    -6.481E-23
  52761.244    -2.220E-23
  52761.309     5.745E-23
  52761.373     6.972E-23
  52761.437     1.129E-22
  52761.502     1.501E-22
  52761.566     1.190E-22
  52761.630     4.486E-23
  52761.695    -4.270E-24
  52761.759    -4.097E-23
  52761.824    -2.273E-23
  52761.888    -4.443E-24
  52761.952     7.744E-24
  52762.017     5.682E-23
  52762.081     8.141E-23
  52762.145     1.309E-22
  52762.210     1.370E-22
  52762.274     1.494E-22
  52762.338     1.617E-22
  52762.403     1.430E-22
  52762.467     1.244E-22
  52762.531     9.954E-23
  52762.596     7.478E-23
  52762.660     1.118E-22
  52762.724     1.614E-22
  52762.789     1.800E-22
  52762.853     1.737E-22
  52762.917     2.049E-22
  52762.982     1.798E-22
  52763.046     1.860E-22
  52763.110     1.735E-22
  52763.175     1.423E-22
  52763.239     1.175E-22
  52763.304     1.050E-22
  52763.368     6.176E-23
  52763.432     3.095E-23
  52763.497     3.089E-23
  52763.561     5.543E-23
  52763.625     8.620E-23
  52763.690     1.047E-22
  52763.754     9.844E-23
  52763.818     6.136E-23
  52763.883     1.827E-23
  52763.947     1.821E-23
  52764.011     4.272E-23
  52764.076     7.345E-23
  52764.140     6.723E-23
  52764.204     2.412E-23
  52764.269    -1.881E-23
  52764.333    -7.373E-23
  52764.398    -8.593E-23
  52764.462    -9.813E-23
  52764.526    -6.174E-23
  52764.591     2.377E-23
  52764.655     6.677E-23
  52764.719     4.208E-23
  52764.784    -3.759E-23
  52764.848    -9.241E-23
  52764.912    -1.939E-23
  52764.977     1.097E-22
  52765.041     2.280E-22
  52765.105     2.656E-22
  52765.170     2.970E-22
  52765.234     2.341E-22
  52765.298     1.280E-22
  52765.363     3.536E-23
  52765.427    -3.207E-23
  52765.492    -8.692E-23
  52765.556    -1.112E-22
  52765.620    -1.052E-22
  52765.685    -3.840E-23
  52765.749     1.046E-23
  52765.813     2.267E-23
  52765.878    -1.909E-24
  52765.942    -2.643E-23
  52766.006    -3.869E-23
  52766.071    -4.485E-23
  52766.135    -5.100E-23
  52766.199    -5.106E-23
  52766.264    -3.282E-23
  52766.328    -2.314E-24
  52766.393     3.443E-23
  52766.457     1.146E-22
  52766.521     1.829E-22
  52766.586     2.328E-22
  52766.650     2.391E-22
  52766.714     1.827E-22
  52766.779     1.081E-22
  52766.843     8.948E-23
  52766.907     1.018E-22
  52766.972     1.079E-22
  52767.036     1.017E-22
  52767.101     8.308E-23
  52767.165     7.067E-23
  52767.229     7.679E-23
  52767.294     1.520E-23
  52767.358    -3.991E-23
  52767.422    -5.825E-23
  52767.487    -2.782E-23
  52767.551    -1.565E-23
  52767.615    -3.472E-24
  52767.680     3.942E-23
  52767.744     5.167E-23
  52767.809     9.480E-23
  52767.873     1.195E-22
  52767.937     8.232E-23
  52768.002     8.227E-23
  52768.066     5.754E-23
  52768.130     2.059E-23
  52768.195     2.667E-23
  52768.259    -4.072E-23
  52768.323    -1.379E-22
  52768.388    -1.982E-22
  52768.452    -2.522E-22
  52768.517    -2.403E-22
  52768.581    -2.284E-22
  52768.645    -1.864E-22
  52768.710    -1.564E-22
  52768.774    -1.323E-22
  52768.838    -1.081E-22
  52768.903    -1.021E-22
  52768.967    -7.181E-23
  52769.031    -5.361E-23
  52769.096    -5.976E-23
  52769.160    -1.710E-23
  52769.225     1.206E-24
  52769.289     3.183E-23
  52769.353     9.959E-23
  52769.418     1.119E-22
  52769.482     9.948E-23
  52769.546     1.180E-22
  52769.611     1.055E-22
  52769.675     6.842E-23
  52769.740    -2.373E-23
  52769.804    -8.472E-23
  52769.868    -9.692E-23
  52769.933    -7.876E-23
  52769.997    -6.057E-23
  52770.061    -6.671E-23
  52770.126    -5.459E-23
  52770.190     3.377E-25
  52770.254     6.790E-23
  52770.319     1.235E-22
  52770.383     1.857E-22
  52770.448     2.482E-22
  52770.512     2.043E-22
  52770.576     1.481E-22
  52770.641     1.046E-22
  52770.705     7.366E-23
  52770.769     6.743E-23
  52770.834     6.738E-23
  52770.898     4.883E-23
  52770.963    -1.260E-23
  52771.027    -7.366E-23
  52771.091    -7.372E-23
  52771.156    -3.722E-23
  52771.220    -1.895E-23
  52771.284     5.464E-23
  52771.349     9.161E-23
  52771.413     7.302E-23
  52771.478     5.447E-23
  52771.542     7.291E-23
  52771.606     8.520E-23
  52771.671     1.223E-22
  52771.735     1.098E-22
  52771.799     6.034E-23
  52771.864     1.109E-23
  52771.928    -1.347E-23
  52771.993     1.711E-23
  52772.057     5.395E-23
  52772.121     7.856E-23
  52772.186     5.999E-23
  52772.250     3.531E-23
  52772.314     2.911E-23
  52772.379     2.905E-23
  52772.443    -7.813E-24
  52772.508     1.665E-23
  52772.572     2.273E-23
  52772.636    -1.862E-24
  52772.701    -5.691E-23
  52772.765    -1.056E-22
  52772.829    -9.351E-23
  52772.894    -7.534E-23
  52772.958    -3.884E-23
  52773.023     4.077E-23
  52773.087     9.005E-23
  52773.151     1.086E-22
  52773.216     1.147E-22
  52773.280     9.606E-23
