 18O2;(7,0);79K;53227-541 cm-1;4748 pts
      WNO        SIGMA
  53227.099    -3.536E-23
  53227.165    -7.048E-23
  53227.230    -1.142E-22
  53227.296    -6.204E-23
  53227.362     7.904E-24
  53227.428     7.819E-23
  53227.494     4.278E-23
  53227.559    -8.882E-23
  53227.625    -2.019E-22
  53227.691    -2.280E-22
  53227.757    -1.328E-22
  53227.823    -1.067E-23
  53227.888     7.716E-23
  53227.954     1.301E-22
  53228.020     7.687E-23
  53228.086    -2.003E-23
  53228.151    -8.141E-23
  53228.217    -2.032E-23
  53228.283     3.223E-23
  53228.349    -4.689E-23
  53228.415    -1.169E-22
  53228.480    -1.083E-22
  53228.546    -5.608E-23
  53228.612     5.791E-23
  53228.678     1.373E-22
  53228.743     4.000E-23
  53228.809    -1.003E-22
  53228.875    -1.353E-22
  53228.941    -1.354E-22
  53229.007    -1.443E-22
  53229.072    -1.009E-22
  53229.138    -1.185E-22
  53229.204    -4.879E-23
  53229.270     4.764E-23
  53229.335     1.004E-22
  53229.401     1.180E-22
  53229.467     1.710E-22
  53229.533     2.332E-22
  53229.599     2.778E-22
  53229.664     2.955E-22
  53229.730     3.223E-22
  53229.796     2.416E-22
  53229.862     8.160E-23
  53229.928     5.499E-23
  53229.993     1.167E-22
  53230.059     1.342E-22
  53230.125     1.252E-22
  53230.191     1.339E-22
  53230.256     1.515E-22
  53230.322     1.958E-22
  53230.388     1.957E-22
  53230.454     4.501E-23
  53230.520    -9.540E-23
  53230.585    -1.130E-22
  53230.651    -9.569E-23
  53230.717    -1.711E-23
  53230.783     7.955E-23
  53230.849     1.680E-22
  53230.914     2.659E-22
  53230.980     3.016E-22
  53231.046     2.835E-22
  53231.112     2.476E-22
  53231.178     1.318E-22
  53231.243     4.325E-23
  53231.309     1.670E-23
  53231.375     6.059E-23
  53231.441     1.489E-22
  53231.506     2.735E-22
  53231.572     3.541E-22
  53231.638     3.720E-22
  53231.704     3.719E-22
  53231.770     3.177E-22
  53231.835     3.626E-22
  53231.901     3.354E-22
  53231.967     2.100E-22
  53232.033     1.299E-22
  53232.099     5.898E-23
  53232.164     5.883E-23
  53232.230     4.106E-23
  53232.296     4.972E-23
  53232.362     1.026E-22
  53232.428     2.268E-22
  53232.493     3.161E-22
  53232.559     3.429E-22
  53232.625     3.608E-22
  53232.691     2.798E-22
  53232.757     1.904E-22
  53232.822     1.547E-22
  53232.888     1.368E-22
  53232.954     1.989E-22
  53233.020     2.612E-22
  53233.085     2.700E-22
  53233.151     3.057E-22
  53233.217     2.876E-22
  53233.283     2.696E-22
  53233.349     3.142E-22
  53233.414     2.514E-22
  53233.480     2.781E-22
  53233.546     3.497E-22
  53233.612     4.127E-22
  53233.678     4.760E-22
  53233.743     4.940E-22
  53233.809     4.394E-22
  53233.875     4.302E-22
  53233.941     4.482E-22
  53234.007     4.118E-22
  53234.072     3.486E-22
  53234.138     2.766E-22
  53234.204     2.407E-22
  53234.270     3.391E-22
  53234.336     4.202E-22
  53234.401     4.019E-22
  53234.467     3.928E-22
  53234.533     3.026E-22
  53234.599     2.666E-22
  53234.665     2.754E-22
  53234.730     2.932E-22
  53234.796     3.020E-22
  53234.862     2.929E-22
  53234.928     2.928E-22
  53234.994     3.465E-22
  53235.059     4.095E-22
  53235.125     3.913E-22
  53235.191     3.371E-22
  53235.257     2.831E-22
  53235.323     3.188E-22
  53235.388     3.817E-22
  53235.454     4.811E-22
  53235.520     5.082E-22
  53235.586     4.990E-22
  53235.652     4.263E-22
  53235.717     2.731E-22
  53235.783     1.481E-22
  53235.849     1.125E-22
  53235.915     1.212E-22
  53235.981     8.567E-23
  53236.046     1.121E-22
  53236.112     6.770E-23
  53236.178    -2.048E-23
  53236.244    -9.941E-23
  53236.310    -1.344E-22
  53236.375    -9.097E-23
  53236.441    -3.501E-24
  53236.507     1.022E-22
  53236.573     1.552E-22
  53236.639     1.640E-22
  53236.704     1.195E-22
  53236.770     1.016E-22
  53236.836     2.201E-23
  53236.902    -3.963E-23
  53236.968    -4.672E-24
  53237.033     1.365E-22
  53237.099     2.164E-22
  53237.165     1.539E-22
  53237.231     1.716E-22
  53237.297     1.981E-22
  53237.363     2.337E-22
  53237.428     2.425E-22
  53237.494     2.512E-22
  53237.560     2.511E-22
  53237.626     2.599E-22
  53237.692     1.883E-22
  53237.757     1.349E-22
  53237.823     1.347E-22
  53237.889     1.434E-22
  53237.955     6.360E-23
  53238.021     1.165E-22
  53238.086     2.410E-22
  53238.152     3.305E-22
  53238.218     3.304E-22
  53238.284     2.495E-22
  53238.350     2.136E-22
  53238.415     1.600E-22
  53238.481     1.688E-22
  53238.547     2.489E-22
  53238.613     4.016E-22
  53238.679     4.739E-22
  53238.744     4.103E-22
  53238.810     3.560E-22
  53238.876     3.739E-22
  53238.942     3.738E-22
  53239.008     3.196E-22
  53239.074     2.567E-22
  53239.139     2.565E-22
  53239.205     1.850E-22
  53239.271     1.659E-23
  53239.337    -8.008E-23
  53239.403    -1.239E-22
  53239.468    -1.240E-22
  53239.534    -5.426E-23
  53239.600     2.466E-23
  53239.666     1.129E-22
  53239.732     2.552E-22
  53239.797     3.448E-22
  53239.863     3.357E-22
  53239.929     3.176E-22
  53239.995     3.534E-22
  53240.061     4.799E-22
  53240.127     6.168E-22
  53240.192     6.718E-22
  53240.258     6.257E-22
  53240.324     5.067E-22
  53240.390     3.976E-22
  53240.456     3.254E-22
  53240.521     2.445E-22
  53240.587     1.730E-22
  53240.653     1.284E-22
  53240.719     1.105E-22
  53240.785     2.203E-23
  53240.850    -6.594E-23
  53240.916    -7.484E-23
  53240.982    -4.871E-23
  53241.048    -4.963E-24
  53241.114     3.686E-24
  53241.180     2.115E-23
  53241.245     6.511E-23
  53241.311     9.149E-23
  53241.377     1.091E-22
  53241.443     1.178E-22
  53241.509     1.088E-22
  53241.574     1.175E-22
  53241.640     1.795E-22
  53241.706     1.705E-22
  53241.772     1.437E-22
  53241.838     1.080E-22
  53241.904     1.345E-22
  53241.969     1.521E-22
  53242.035     1.431E-22
  53242.101     2.053E-22
  53242.167     2.767E-22
  53242.233     2.676E-22
  53242.298     2.585E-22
  53242.364     9.800E-23
  53242.430     3.599E-23
  53242.496     8.886E-23
  53242.562     1.419E-22
  53242.628     1.684E-22
  53242.693     1.327E-22
  53242.759     1.771E-22
  53242.825     1.591E-22
  53242.891     7.029E-23
  53242.957    -4.164E-25
  53243.023    -2.693E-23
  53243.088    -6.217E-23
  53243.154    -6.231E-23
  53243.220     1.660E-23
  53243.286    -3.630E-23
  53243.352    -1.501E-22
  53243.417    -2.198E-22
  53243.483    -2.977E-22
  53243.549    -1.505E-22
  53243.615     1.307E-22
  53243.681     3.362E-22
  53243.747     3.992E-22
  53243.812     3.449E-22
  53243.878     2.460E-22
  53243.944     1.388E-22
  53244.010     7.664E-23
  53244.076     6.765E-23
  53244.141     1.651E-22
  53244.207     2.006E-22
  53244.273     1.826E-22
  53244.339     1.380E-22
  53244.405     1.023E-22
  53244.471     1.377E-22
  53244.536     1.375E-22
  53244.602     9.302E-23
  53244.668     9.288E-23
  53244.734     1.282E-22
  53244.800     1.725E-22
  53244.866     2.617E-22
  53244.931     3.244E-22
  53244.997     2.435E-22
  53245.063     1.897E-22
  53245.129     2.611E-22
  53245.195     2.699E-22
  53245.261     3.237E-22
  53245.326     4.229E-22
  53245.392     4.046E-22
  53245.458     3.322E-22
  53245.524     2.334E-22
  53245.590     1.797E-22
  53245.656     9.068E-23
  53245.721    -1.537E-23
  53245.787    -1.551E-23
  53245.853     1.074E-23
  53245.919     2.822E-23
  53245.985     7.224E-23
  53246.050     1.697E-22
  53246.116     2.679E-22
  53246.182     3.396E-22
  53246.248     3.936E-22
  53246.314     4.297E-22
  53246.380     3.843E-22
  53246.445     2.851E-22
  53246.511     2.133E-22
  53246.577     1.775E-22
  53246.643     1.684E-22
  53246.709     2.307E-22
  53246.775     2.933E-22
  53246.840     3.022E-22
  53246.906     3.380E-22
  53246.972     2.839E-22
  53247.038     2.032E-22
  53247.104     1.052E-22
  53247.170     1.317E-22
  53247.235     1.404E-22
  53247.301     1.848E-22
  53247.367     2.114E-22
  53247.433     2.381E-22
  53247.499     2.827E-22
  53247.565     1.931E-22
  53247.630     3.323E-23
  53247.696    -9.869E-23
  53247.762    -1.250E-22
  53247.828    -7.272E-23
  53247.894    -1.428E-22
  53247.960    -1.778E-22
  53248.025    -1.256E-22
  53248.091    -2.944E-23
  53248.157     4.089E-23
  53248.223     1.471E-22
  53248.289     2.362E-22
  53248.355     2.629E-22
  53248.420     2.269E-22
  53248.486     1.910E-22
  53248.552     1.998E-22
  53248.618     1.373E-22
  53248.684     1.017E-22
  53248.750     3.074E-23
  53248.816    -4.862E-23
  53248.881    -4.876E-23
  53248.947    -7.522E-23
  53249.013    -7.536E-23
  53249.079    -5.798E-23
  53249.145     1.222E-23
  53249.211     7.390E-23
  53249.276     1.193E-23
  53249.342     2.942E-23
  53249.408     1.622E-22
  53249.474     2.335E-22
  53249.540     2.334E-22
  53249.606     2.243E-22
  53249.671     2.510E-22
  53249.737     1.972E-22
  53249.803     1.703E-22
  53249.869     1.434E-22
  53249.935     1.433E-22
  53250.001     1.431E-22
  53250.066     1.786E-22
  53250.132     2.142E-22
  53250.198     1.160E-22
  53250.264     4.503E-23
  53250.330     8.912E-23
  53250.396     1.511E-22
  53250.462     1.866E-22
  53250.527     1.420E-22
  53250.593     1.063E-22
  53250.659     9.725E-23
  53250.725     1.149E-22
  53250.791     1.414E-22
  53250.857     1.323E-22
  53250.922     6.124E-23
  53250.988     1.693E-23
  53251.054     7.966E-24
  53251.120    -1.860E-23
  53251.186     5.181E-23
  53251.252     1.938E-22
  53251.317     2.563E-22
  53251.383     2.472E-22
  53251.449     1.221E-22
  53251.515     1.576E-23
  53251.581    -2.842E-23
  53251.647     3.311E-23
  53251.713     3.296E-23
  53251.778     6.818E-23
  53251.844     1.212E-22
  53251.910     1.033E-22
  53251.976     1.032E-22
  53252.042     9.417E-23
  53252.108     6.745E-23
  53252.173     2.311E-23
  53252.239     4.946E-23
  53252.305     6.701E-23
  53252.371     2.267E-23
  53252.437    -3.033E-23
  53252.503    -7.438E-23
  53252.569    -2.183E-23
  53252.634    -1.317E-23
  53252.700     4.297E-24
  53252.766     4.829E-23
  53252.832     5.698E-23
  53252.898     6.569E-23
  53252.964     1.187E-22
  53253.029     1.809E-22
  53253.095     2.076E-22
  53253.161     2.522E-22
  53253.227     3.059E-22
  53253.293     3.508E-22
  53253.359     3.778E-22
  53253.425     3.867E-22
  53253.490     4.137E-22
  53253.556     4.408E-22
  53253.622     5.501E-22
  53253.688     5.957E-22
  53253.754     5.223E-22
  53253.820     4.130E-22
  53253.886     2.595E-22
  53253.951     1.165E-22
  53254.017     1.018E-23
  53254.083    -6.913E-23
  53254.149    -6.928E-23
  53254.215     2.739E-23
  53254.281     1.871E-22
  53254.347     2.406E-22
  53254.412     2.673E-22
  53254.478     3.302E-22
  53254.544     2.760E-22
  53254.610     2.489E-22
  53254.676     2.309E-22
  53254.742     2.397E-22
  53254.807     2.575E-22
  53254.873     3.023E-22
  53254.939     2.392E-22
  53255.005     1.320E-22
  53255.071    -9.799E-24
  53255.137    -8.901E-23
  53255.203    -2.113E-22
  53255.268    -2.375E-22
  53255.334    -1.245E-22
  53255.400     2.474E-23
  53255.466     1.844E-22
  53255.532     3.368E-22
  53255.598     4.090E-22
  53255.664     4.089E-22
  53255.729     3.364E-22
  53255.795     2.732E-22
  53255.861     2.193E-22
  53255.927     1.566E-22
  53255.993     1.743E-22
  53256.059     2.368E-22
  53256.125     2.545E-22
  53256.190     2.723E-22
  53256.256     2.632E-22
  53256.322     2.451E-22
  53256.388     2.540E-22
  53256.454     3.167E-22
  53256.520     3.798E-22
  53256.586     4.340E-22
  53256.651     3.795E-22
  53256.717     3.162E-22
  53256.783     2.620E-22
  53256.849     2.440E-22
  53256.915     2.707E-22
  53256.981     3.066E-22
  53257.047     3.334E-22
  53257.112     3.694E-22
  53257.178     3.783E-22
  53257.244     3.601E-22
  53257.310     2.968E-22
  53257.376     2.697E-22
  53257.442     2.785E-22
  53257.508     2.425E-22
  53257.574     2.693E-22
  53257.639     3.412E-22
  53257.705     3.681E-22
  53257.771     3.770E-22
  53257.837     3.859E-22
  53257.903     3.135E-22
  53257.969     2.415E-22
  53258.035     1.608E-22
  53258.100     1.340E-22
  53258.166     1.605E-22
  53258.232     1.337E-22
  53258.298     9.797E-23
  53258.364     8.895E-23
  53258.430     1.243E-22
  53258.496     1.420E-22
  53258.561     1.775E-22
  53258.627     1.952E-22
  53258.693     1.415E-22
  53258.759     7.920E-23
  53258.825     5.247E-23
  53258.891     1.144E-22
  53258.957     1.499E-22
  53259.023     1.943E-22
  53259.088     2.300E-22
  53259.154     2.299E-22
  53259.220     1.760E-22
  53259.286     1.224E-22
  53259.352     6.901E-23
  53259.418     2.462E-23
  53259.484    -2.011E-24
  53259.549     4.201E-23
  53259.615     1.128E-22
  53259.681     1.661E-22
  53259.747     2.554E-22
  53259.813     2.643E-22
  53259.879     2.014E-22
  53259.945     1.566E-22
  53260.011     1.475E-22
  53260.076     1.741E-22
  53260.142     2.097E-22
  53260.208     2.006E-22
  53260.274     2.722E-22
  53260.340     3.532E-22
  53260.406     3.983E-22
  53260.472     3.619E-22
  53260.537     2.986E-22
  53260.603     1.373E-22
  53260.669     8.381E-23
  53260.735     1.637E-22
  53260.801     1.904E-22
  53260.867     2.260E-22
  53260.933     2.438E-22
  53260.999     1.364E-22
  53261.064     2.978E-23
  53261.130     5.618E-23
  53261.196     6.490E-23
  53261.262     5.589E-23
  53261.328     1.152E-23
  53261.394    -6.272E-24
  53261.460    -1.524E-23
  53261.526     2.256E-24
  53261.591    -6.713E-24
  53261.657    -5.089E-23
  53261.723    -1.736E-22
  53261.789    -2.780E-22
  53261.855    -2.955E-22
  53261.921    -2.697E-22
  53261.987    -2.698E-22
  53262.053    -2.179E-22
  53262.118    -1.133E-22
  53262.184    -7.842E-23
  53262.250     9.467E-24
  53262.316     3.583E-23
  53262.382     3.569E-23
  53262.448     1.786E-23
  53262.514    -2.640E-23
  53262.580    -2.655E-23
  53262.645    -3.550E-23
  53262.711    -6.203E-23
  53262.777    -7.974E-23
  53262.843    -7.111E-23
  53262.909    -1.501E-22
  53262.975    -2.025E-22
  53263.041    -1.591E-22
  53263.107    -1.330E-22
  53263.172    -2.787E-23
  53263.238     1.225E-22
  53263.304     1.759E-22
  53263.370     1.400E-22
  53263.436     1.310E-22
  53263.502     2.022E-22
  53263.568     2.290E-22
  53263.634     2.378E-22
  53263.699     1.660E-22
  53263.765     1.570E-22
  53263.831     1.836E-22
  53263.897     2.462E-22
  53263.963     2.550E-22
  53264.029     2.549E-22
  53264.095     2.099E-22
  53264.161     1.739E-22
  53264.226     1.381E-22
  53264.292     4.909E-24
  53264.358    -1.008E-22
  53264.424    -3.947E-23
  53264.490     1.019E-22
  53264.556     1.731E-22
  53264.622     2.177E-22
  53264.688     2.085E-22
  53264.754     1.013E-22
  53264.819    -5.094E-24
  53264.885    -9.322E-23
  53264.951    -1.197E-22
  53265.017    -8.474E-23
  53265.083     3.145E-24
  53265.149     1.005E-22
  53265.215     1.716E-22
  53265.281     1.714E-22
  53265.346     2.160E-22
  53265.412     2.697E-22
  53265.478     3.417E-22
  53265.544     4.050E-22
  53265.610     3.686E-22
  53265.676     2.692E-22
  53265.742     2.152E-22
  53265.808     2.150E-22
  53265.874     1.255E-22
  53265.939     2.775E-23
  53266.005    -7.817E-23
  53266.071    -1.484E-22
  53266.137    -1.223E-22
  53266.203    -2.582E-23
  53266.269     1.817E-23
  53266.335     9.184E-24
  53266.401     5.328E-23
  53266.466     7.087E-23
  53266.532     8.742E-24
  53266.598    -7.071E-23
  53266.664    -2.685E-23
  53266.730     7.028E-23
  53266.796     1.591E-22
  53266.862     1.858E-22
  53266.928     1.499E-22
  53266.994     1.676E-22
  53267.059     2.571E-22
  53267.125     3.110E-22
  53267.191     2.928E-22
  53267.257     2.566E-22
  53267.323     1.758E-22
  53267.389     5.994E-23
  53267.455    -5.503E-23
  53267.521    -1.691E-22
  53267.587    -2.823E-22
  53267.652    -2.911E-22
  53267.718    -2.653E-22
  53267.784    -1.784E-22
  53267.850    -9.984E-23
  53267.916    -4.726E-23
  53267.982     5.506E-24
  53268.048     1.420E-23
  53268.114     4.060E-23
  53268.180     1.390E-23
  53268.245     3.145E-23
  53268.311     2.245E-23
  53268.377    -7.468E-23
  53268.443    -6.604E-23
  53268.509    -2.215E-23
  53268.575     3.071E-23
  53268.641     5.714E-23
  53268.707     2.157E-23
  53268.773    -2.274E-23
  53268.839    -4.052E-23
  53268.904    -1.110E-22
  53268.970    -1.286E-22
  53269.036    -5.857E-23
  53269.102    -5.827E-24
  53269.168    -2.362E-23
  53269.234    -2.377E-23
  53269.300    -1.510E-23
  53269.366    -4.169E-23
  53269.432    -4.184E-23
  53269.497    -2.436E-23
  53269.563     1.262E-22
  53269.629     2.603E-22
  53269.695     3.142E-22
  53269.761     3.231E-22
  53269.827     2.689E-22
  53269.893     1.880E-22
  53269.959     5.420E-23
  53270.025    -1.671E-23
  53270.090     9.636E-24
  53270.156     9.489E-24
  53270.222    -8.329E-24
  53270.288    -3.494E-23
  53270.354    -1.405E-22
  53270.420    -2.626E-22
  53270.486    -3.147E-22
  53270.552    -3.408E-22
  53270.618    -2.370E-22
  53270.684    -4.464E-23
  53270.749     7.018E-23
  53270.815     1.412E-22
  53270.881     1.858E-22
  53270.947     2.035E-22
  53271.013     1.586E-22
  53271.079     1.050E-22
  53271.145     4.269E-23
  53271.211     2.483E-23
  53271.277     5.126E-23
  53271.343     1.222E-22
  53271.408     1.667E-22
  53271.474     2.652E-22
  53271.540     4.007E-22
  53271.606     4.460E-22
  53271.672     3.913E-22
  53271.738     2.916E-22
  53271.804     1.748E-22
  53271.870     1.478E-22
  53271.936     2.912E-22
  53272.002     4.178E-22
  53272.067     4.541E-22
  53272.133     4.084E-22
  53272.199     3.448E-22
  53272.265     2.905E-22
  53272.331     2.633E-22
  53272.397     2.093E-22
  53272.463     2.181E-22
  53272.529     2.000E-22
  53272.595     1.462E-22
  53272.661     1.104E-22
  53272.726     1.280E-22
  53272.792     1.279E-22
  53272.858     1.099E-22
  53272.924     1.902E-22
  53272.990     2.349E-22
  53273.056     2.617E-22
  53273.122     3.066E-22
  53273.188     2.974E-22
  53273.254     2.432E-22
  53273.320     1.089E-22
  53273.386    -6.562E-24
  53273.451    -7.722E-23
  53273.517    -1.475E-22
  53273.583    -1.564E-22
  53273.649    -5.126E-23
  53273.715     6.356E-23
  53273.781     1.614E-22
  53273.847     2.599E-22
  53273.913     3.139E-22
  53273.979     3.589E-22
  53274.045     2.865E-22
  53274.110     1.607E-22
  53274.176     1.516E-22
  53274.242     1.247E-22
  53274.308     9.779E-23
  53274.374     1.601E-22
  53274.440     1.868E-22
  53274.506     2.405E-22
  53274.572     2.313E-22
  53274.638     2.132E-22
  53274.704     1.326E-22
  53274.770     6.120E-23
  53274.835     3.444E-23
  53274.901    -4.525E-23
  53274.967    -1.508E-22
  53275.033    -1.859E-22
  53275.099    -1.423E-22
  53275.165    -1.249E-22
  53275.231    -7.240E-23
  53275.297     6.850E-24
  53275.363     3.327E-23
  53275.429     5.973E-23
  53275.495     5.958E-23
  53275.560     7.720E-23
  53275.626     9.484E-23
  53275.692     1.214E-22
  53275.758     1.213E-22
  53275.824     3.223E-23
  53275.890     6.758E-23
  53275.956     1.923E-22
  53276.022     3.453E-22
  53276.088     3.633E-22
  53276.154     3.088E-22
  53276.220     2.366E-22
  53276.286     2.006E-22
  53276.351     2.273E-22
  53276.417     2.902E-22
  53276.483     2.901E-22
  53276.549     2.449E-22
  53276.615     1.283E-22
  53276.681    -5.087E-24
  53276.747    -3.173E-23
  53276.813    -7.594E-23
  53276.879    -1.112E-22
  53276.945    -9.382E-23
  53277.011    -4.114E-23
  53277.076     7.381E-23
  53277.142     1.093E-22
  53277.208     1.359E-22
  53277.274     1.268E-22
  53277.340     1.999E-23
  53277.406    -1.555E-23
  53277.472     1.084E-23
