#  O2 xsec;CfA;O2WB12X0;300 K;55485-55800 cm-1;3505 pts        
#    WNO      SIGMA
  55485.036     2.671E-21
  55485.110     2.693E-21
  55485.184     2.691E-21
  55485.257     2.669E-21
  55485.331     2.657E-21
  55485.405     2.671E-21
  55485.479     2.666E-21
  55485.553     2.638E-21
  55485.627     2.620E-21
  55485.701     2.590E-21
  55485.776     2.550E-21
  55485.850     2.559E-21
  55485.924     2.583E-21
  55485.998     2.608E-21
  55486.072     2.614E-21
  55486.146     2.612E-21
  55486.220     2.623E-21
  55486.294     2.622E-21
  55486.368     2.640E-21
  55486.441     2.665E-21
  55486.515     2.680E-21
  55486.590     2.731E-21
  55486.664     2.785E-21
  55486.738     2.857E-21
  55486.812     2.903E-21
  55486.886     2.951E-21
  55486.960     2.939E-21
  55487.034     2.912E-21
  55487.108     2.867E-21
  55487.182     2.833E-21
  55487.256     2.820E-21
  55487.330     2.848E-21
  55487.404     2.882E-21
  55487.478     2.918E-21
  55487.552     2.932E-21
  55487.626     2.983E-21
  55487.699     3.006E-21
  55487.773     2.979E-21
  55487.847     2.911E-21
  55487.921     2.839E-21
  55487.995     2.746E-21
  55488.069     2.680E-21
  55488.143     2.640E-21
  55488.217     2.595E-21
  55488.291     2.553E-21
  55488.365     2.533E-21
  55488.439     2.488E-21
  55488.513     2.463E-21
  55488.587     2.463E-21
  55488.661     2.463E-21
  55488.735     2.472E-21
  55488.809     2.502E-21
  55488.883     2.549E-21
  55488.957     2.620E-21
  55489.030     2.687E-21
  55489.104     2.754E-21
  55489.178     2.824E-21
  55489.252     2.911E-21
  55489.326     2.984E-21
  55489.400     3.038E-21
  55489.474     3.138E-21
  55489.548     3.199E-21
  55489.622     3.301E-21
  55489.696     3.353E-21
  55489.770     3.391E-21
  55489.844     3.400E-21
  55489.918     3.407E-21
  55489.992     3.406E-21
  55490.066     3.375E-21
  55490.140     3.308E-21
  55490.214     3.248E-21
  55490.288     3.218E-21
  55490.362     3.197E-21
  55490.435     3.206E-21
  55490.509     3.280E-21
  55490.583     3.357E-21
  55490.657     3.429E-21
  55490.731     3.531E-21
  55490.805     3.646E-21
  55490.879     3.772E-21
  55490.953     3.919E-21
  55491.027     3.966E-21
  55491.101     4.022E-21
  55491.175     4.160E-21
  55491.249     4.272E-21
  55491.323     4.450E-21
  55491.397     4.598E-21
  55491.471     4.718E-21
  55491.545     4.864E-21
  55491.619     4.927E-21
  55491.693     5.060E-21
  55491.767     5.091E-21
  55491.841     5.114E-21
  55491.915     5.181E-21
  55491.988     5.304E-21
  55492.062     5.330E-21
  55492.136     5.362E-21
  55492.210     5.383E-21
  55492.284     5.497E-21
  55492.358     5.613E-21
  55492.432     5.683E-21
  55492.506     5.745E-21
  55492.580     5.777E-21
  55492.654     5.820E-21
  55492.728     5.930E-21
  55492.802     6.055E-21
  55492.876     6.145E-21
  55492.950     6.280E-21
  55493.024     6.552E-21
  55493.098     6.829E-21
  55493.172     7.001E-21
  55493.246     7.285E-21
  55493.320     7.532E-21
  55493.394     7.824E-21
  55493.468     8.177E-21
  55493.542     8.543E-21
  55493.616     8.989E-21
  55493.689     9.258E-21
  55493.763     9.644E-21
  55493.837     1.010E-20
  55493.975     1.289E-20
  55494.065     1.360E-20
  55494.154     1.468E-20
  55494.244     1.656E-20
  55494.333     1.948E-20
  55494.457     2.304E-20
  55494.546     2.664E-20
  55494.636     3.068E-20
  55494.725     3.589E-20
  55494.815     4.204E-20
  55494.893     4.874E-20
  55494.982     5.619E-20
  55495.072     6.502E-20
  55495.161     7.734E-20
  55495.251     9.536E-20
  55495.347     1.182E-19
  55495.423     1.400E-19
  55495.507     1.555E-19
  55495.597     1.650E-19
  55495.686     1.675E-19
  55495.794     1.614E-19
  55495.884     1.489E-19
  55495.974     1.355E-19
  55496.063     1.235E-19
  55496.153     1.135E-19
  55496.242     1.084E-19
  55496.332     1.096E-19
  55496.425     1.169E-19
  55496.510     1.262E-19
  55496.600     1.334E-19
  55496.670     1.409E-19
  55496.760     1.506E-19
  55496.849     1.628E-19
  55496.939     1.753E-19
  55497.034     1.833E-19
  55497.137     1.863E-19
  55497.213     1.865E-19
  55497.297     1.822E-19
  55497.392     1.737E-19
  55497.495     1.648E-19
  55497.584     1.575E-19
  55497.674     1.484E-19
  55497.763     1.359E-19
  55497.853     1.227E-19
  55497.942     1.105E-19
  55498.032     9.871E-20
  55498.121     8.569E-20
  55498.204     7.240E-20
  55498.293     6.186E-20
  55498.383     5.380E-20
  55498.484     4.706E-20
  55498.562     4.143E-20
  55498.663     3.613E-20
  55498.752     3.201E-20
  55498.842     2.949E-20
  55498.931     2.757E-20
  55498.987     2.566E-20
  55499.110     2.364E-20
  55499.166     2.174E-20
  55499.255     2.039E-20
  55499.345     1.900E-20
  55499.434     1.712E-20
  55499.524     1.513E-20
  55499.613     1.378E-20
  55499.703     1.300E-20
  55499.792     1.149E-20
  55499.977     1.026E-20
  55500.051     9.972E-21
  55500.125     9.472E-21
  55500.199     9.008E-21
  55500.273     8.603E-21
  55500.347     8.245E-21
  55500.420     7.985E-21
  55500.494     7.632E-21
  55500.568     7.388E-21
  55500.642     7.094E-21
  55500.716     6.808E-21
  55500.790     6.569E-21
  55500.864     6.368E-21
  55500.938     6.095E-21
  55501.012     5.865E-21
  55501.086     5.819E-21
  55501.160     5.695E-21
  55501.234     5.536E-21
  55501.308     5.415E-21
  55501.382     5.325E-21
  55501.456     5.209E-21
  55501.530     5.102E-21
  55501.604     5.054E-21
  55501.678     5.089E-21
  55501.752     5.095E-21
  55501.826     5.145E-21
  55501.900     5.214E-21
  55501.974     5.294E-21
  55502.048     5.333E-21
  55502.122     5.283E-21
  55502.196     5.186E-21
  55502.270     5.078E-21
  55502.344     4.962E-21
  55502.418     4.760E-21
  55502.492     4.571E-21
  55502.566     4.446E-21
  55502.640     4.378E-21
  55502.714     4.344E-21
  55502.788     4.318E-21
  55502.862     4.253E-21
  55502.936     4.251E-21
  55503.010     4.172E-21
  55503.084     4.142E-21
  55503.158     4.105E-21
  55503.232     4.043E-21
  55503.306     4.006E-21
  55503.380     3.898E-21
  55503.454     3.791E-21
  55503.528     3.712E-21
  55503.602     3.631E-21
  55503.676     3.583E-21
  55503.750     3.490E-21
  55503.824     3.427E-21
  55503.898     3.316E-21
  55503.972     3.240E-21
  55504.046     3.175E-21
  55504.120     3.112E-21
  55504.194     3.015E-21
  55504.267     2.967E-21
  55504.341     2.926E-21
  55504.415     2.873E-21
  55504.489     2.829E-21
  55504.563     2.788E-21
  55504.637     2.753E-21
  55504.711     2.751E-21
  55504.785     2.714E-21
  55504.859     2.689E-21
  55504.933     2.641E-21
  55505.007     2.632E-21
  55505.081     2.663E-21
  55505.155     2.657E-21
  55505.229     2.647E-21
  55505.303     2.652E-21
  55505.377     2.622E-21
  55505.451     2.604E-21
  55505.525     2.572E-21
  55505.599     2.506E-21
  55505.673     2.492E-21
  55505.747     2.483E-21
  55505.821     2.440E-21
  55505.895     2.412E-21
  55505.969     2.391E-21
  55506.043     2.361E-21
  55506.117     2.341E-21
  55506.191     2.348E-21
  55506.265     2.367E-21
  55506.339     2.393E-21
  55506.413     2.398E-21
  55506.487     2.387E-21
  55506.561     2.393E-21
  55506.635     2.431E-21
  55506.709     2.490E-21
  55506.783     2.560E-21
  55506.857     2.677E-21
  55506.931     2.787E-21
  55507.005     2.956E-21
  55507.101     7.469E-21
  55507.191     8.859E-21
  55507.282     8.089E-21
  55507.372     6.677E-21
  55507.462     5.654E-21
  55507.552     4.416E-21
  55507.642     3.478E-21
  55507.732     4.180E-21
  55507.822     3.886E-21
  55508.041     2.937E-21
  55508.115     2.875E-21
  55508.189     2.838E-21
  55508.263     2.819E-21
  55508.337     2.856E-21
  55508.411     2.893E-21
  55508.485     2.934E-21
  55508.559     2.972E-21
  55508.633     3.028E-21
  55508.707     3.113E-21
  55508.781     3.268E-21
  55508.855     3.482E-21
  55508.929     3.721E-21
  55509.003     3.994E-21
  55509.077     4.367E-21
  55509.151     4.826E-21
  55509.225     5.390E-21
  55509.299     6.252E-21
  55509.354     1.266E-20
  55509.444     1.822E-20
  55509.559     2.450E-20
  55509.650     2.783E-20
  55509.740     2.867E-20
  55509.830     2.831E-20
  55509.894     2.698E-20
  55509.984     2.250E-20
  55510.074     1.779E-20
  55510.164     1.397E-20
  55510.261     9.233E-21
  55510.335     8.414E-21
  55510.409     7.613E-21
  55510.483     6.708E-21
  55510.557     6.261E-21
  55510.631     5.719E-21
  55510.705     5.326E-21
  55510.779     5.015E-21
  55510.853     4.821E-21
  55510.927     4.668E-21
  55511.001     4.592E-21
  55511.075     4.504E-21
  55511.149     4.388E-21
  55511.223     4.333E-21
  55511.297     4.317E-21
  55511.371     4.267E-21
  55511.445     4.263E-21
  55511.519     4.319E-21
  55511.593     4.353E-21
  55511.667     4.337E-21
  55511.741     4.330E-21
  55511.815     4.393E-21
  55511.889     4.555E-21
  55511.963     4.765E-21
  55512.037     5.089E-21
  55512.111     5.510E-21
  55512.185     5.999E-21
  55512.259     6.653E-21
  55512.333     7.336E-21
  55512.416     1.011E-20
  55512.507     1.333E-20
  55512.597     1.578E-20
  55512.687     1.793E-20
  55512.777     2.045E-20
  55512.867     2.169E-20
  55512.957     2.205E-20
  55513.047     2.241E-20
  55513.137     2.246E-20
  55513.227     2.054E-20
  55513.317     1.786E-20
  55513.407     1.507E-20
  55513.497     1.199E-20
  55513.587     9.367E-21
  55513.678     8.038E-21
  55513.768     6.813E-21
  55513.858     5.634E-21
  55513.948     5.339E-21
  55514.038     6.254E-21
  55514.128     8.443E-21
  55514.218     9.723E-21
  55514.308     1.055E-20
  55514.398     1.271E-20
  55514.488     1.568E-20
  55514.578     1.877E-20
  55514.668     1.948E-20
  55514.759     1.937E-20
  55514.849     1.899E-20
  55514.939     1.826E-20
  55515.029     1.702E-20
  55515.119     1.615E-20
  55515.209     1.441E-20
  55515.299     1.398E-20
  55515.389     1.247E-20
  55515.479     1.162E-20
  55515.569     1.098E-20
  55515.659     9.538E-21
  55515.749     8.326E-21
  55515.840     7.024E-21
  55515.930     5.059E-21
  55516.034     4.569E-21
  55516.108     4.146E-21
  55516.182     3.879E-21
  55516.256     3.714E-21
  55516.330     3.592E-21
  55516.404     3.536E-21
  55516.478     3.484E-21
  55516.552     3.384E-21
  55516.626     3.286E-21
  55516.700     3.135E-21
  55516.774     3.010E-21
  55516.848     2.893E-21
  55516.922     2.801E-21
  55516.996     2.722E-21
  55517.070     2.654E-21
  55517.144     2.596E-21
  55517.218     2.542E-21
  55517.292     2.512E-21
  55517.366     2.477E-21
  55517.440     2.416E-21
  55517.514     2.377E-21
  55517.588     2.331E-21
  55517.662     2.290E-21
  55517.736     2.239E-21
  55517.810     2.207E-21
  55517.884     2.191E-21
  55517.958     2.162E-21
  55518.032     2.152E-21
  55518.106     2.161E-21
  55518.180     2.158E-21
  55518.254     2.206E-21
  55518.328     2.284E-21
  55518.402     2.387E-21
  55518.476     2.522E-21
  55518.550     2.691E-21
  55518.624     2.897E-21
  55518.698     3.126E-21
  55518.722     5.769E-21
  55518.812     7.108E-21
  55518.902     9.000E-21
  55518.992     1.017E-20
  55519.082     1.007E-20
  55519.172     1.019E-20
  55519.262     9.751E-21
  55519.353     7.982E-21
  55519.443     6.817E-21
  55519.533     5.970E-21
  55519.623     4.408E-21
  55519.735     2.855E-21
  55519.809     2.708E-21
  55519.883     2.653E-21
  55519.957     2.645E-21
  55520.031     2.683E-21
  55520.105     2.748E-21
  55520.179     2.839E-21
  55520.253     2.995E-21
  55520.327     3.159E-21
  55520.401     3.356E-21
  55520.475     3.542E-21
  55520.549     3.631E-21
  55520.623     3.728E-21
  55520.697     3.700E-21
  55520.771     3.577E-21
  55520.845     3.419E-21
  55520.919     3.166E-21
  55520.993     2.912E-21
  55521.067     2.731E-21
  55521.141     2.572E-21
  55521.215     2.438E-21
  55521.289     2.333E-21
  55521.363     2.231E-21
  55521.437     2.168E-21
  55521.511     2.137E-21
  55521.585     2.142E-21
  55521.659     2.157E-21
  55521.733     2.195E-21
  55521.808     2.243E-21
  55521.882     2.329E-21
  55521.956     2.437E-21
  55522.030     2.506E-21
  55522.104     2.585E-21
  55522.178     2.624E-21
  55522.252     2.621E-21
  55522.326     2.603E-21
  55522.400     2.537E-21
  55522.474     2.440E-21
  55522.548     2.331E-21
  55522.622     2.265E-21
  55522.696     2.225E-21
  55522.770     2.217E-21
  55522.844     2.223E-21
  55522.918     2.246E-21
  55522.992     2.258E-21
  55523.066     2.267E-21
  55523.140     2.296E-21
  55523.214     2.331E-21
  55523.288     2.365E-21
  55523.362     2.426E-21
  55523.436     2.499E-21
  55523.510     2.534E-21
  55523.584     2.604E-21
  55523.658     2.700E-21
  55523.732     2.855E-21
  55523.806     3.014E-21
  55523.880     3.148E-21
  55523.954     3.309E-21
  55524.029     3.426E-21
  55524.103     3.527E-21
  55524.177     3.650E-21
  55524.251     3.782E-21
  55524.487     4.420E-21
  55524.577     4.908E-21
  55524.667     6.890E-21
  55524.757     7.083E-21
  55524.847     7.083E-21
  55524.937     8.518E-21
  55525.027     7.895E-21
  55525.117     6.497E-21
  55525.207     5.369E-21
  55525.297     5.084E-21
  55525.387     4.417E-21
  55525.435     3.630E-21
  55525.509     3.495E-21
  55525.583     3.444E-21
  55525.657     3.431E-21
  55525.731     3.436E-21
  55525.805     3.468E-21
  55525.880     3.496E-21
  55525.954     3.530E-21
  55526.028     3.508E-21
  55526.102     3.499E-21
  55526.176     3.449E-21
  55526.250     3.415E-21
  55526.324     3.339E-21
  55526.398     3.279E-21
  55526.472     3.245E-21
  55526.546     3.219E-21
  55526.620     3.222E-21
  55526.694     3.238E-21
  55526.768     3.300E-21
  55526.842     3.402E-21
  55526.916     3.467E-21
  55526.990     3.524E-21
  55527.064     3.604E-21
  55527.138     3.657E-21
  55527.212     3.762E-21
  55527.286     3.848E-21
  55527.360     3.936E-21
  55527.434     4.060E-21
  55527.508     4.190E-21
  55527.583     4.338E-21
  55527.657     4.524E-21
  55527.731     4.736E-21
  55527.805     4.969E-21
  55527.879     5.216E-21
  55527.953     5.459E-21
  55528.089     5.784E-21
  55528.179     6.658E-21
  55528.270     8.056E-21
  55528.360     8.828E-21
  55528.450     7.923E-21
  55528.540     6.728E-21
  55528.630     5.732E-21
  55528.817     4.466E-21
  55528.891     4.258E-21
  55528.965     4.110E-21
  55529.039     3.936E-21
  55529.113     3.825E-21
  55529.187     3.731E-21
  55529.261     3.655E-21
  55529.335     3.614E-21
  55529.409     3.599E-21
  55529.484     3.568E-21
  55529.558     3.550E-21
  55529.632     3.569E-21
  55529.706     3.586E-21
  55529.780     3.588E-21
  55529.854     3.609E-21
  55529.928     3.608E-21
  55530.002     3.582E-21
  55530.076     3.610E-21
  55530.150     3.699E-21
  55530.224     3.760E-21
  55530.298     3.819E-21
  55530.372     3.772E-21
  55530.446     3.810E-21
  55530.520     3.860E-21
  55530.594     3.905E-21
  55530.668     3.942E-21
  55530.743     4.044E-21
  55530.817     4.145E-21
  55530.891     4.252E-21
  55530.965     4.381E-21
  55531.039     4.496E-21
  55531.113     4.601E-21
  55531.187     4.679E-21
  55531.261     4.810E-21
  55531.335     4.986E-21
  55531.409     5.166E-21
  55531.483     5.300E-21
  55531.557     5.450E-21
  55531.631     5.560E-21
  55531.705     5.685E-21
  55531.779     5.837E-21
  55531.853     6.109E-21
  55531.927     6.427E-21
  55532.002     6.591E-21
  55532.076     6.768E-21
  55532.150     7.054E-21
  55532.224     7.364E-21
  55532.298     7.766E-21
  55532.372     7.991E-21
  55532.446     8.322E-21
  55532.520     8.714E-21
  55532.594     9.049E-21
  55532.668     9.373E-21
  55532.742     9.522E-21
  55532.863     1.152E-20
  55532.953     1.395E-20
  55533.043     1.697E-20
  55533.159     2.014E-20
  55533.223     2.244E-20
  55533.339     2.458E-20
  55533.403     2.821E-20
  55533.519     3.338E-20
  55533.609     3.832E-20
  55533.681     4.529E-20
  55533.771     5.369E-20
  55533.861     6.674E-20
  55533.952     8.615E-20
  55534.042     1.058E-19
  55534.136     1.290E-19
  55534.228     1.543E-19
  55534.316     1.675E-19
  55534.386     1.745E-19
  55534.496     1.668E-19
  55534.586     1.462E-19
  55534.676     1.290E-19
  55534.766     1.123E-19
  55534.856     1.018E-19
  55534.946     9.991E-20
  55535.036     9.768E-20
  55535.126     9.259E-20
  55535.216     9.404E-20
  55535.306     1.024E-19
  55535.396     1.100E-19
  55535.486     1.132E-19
  55535.576     1.221E-19
  55535.667     1.343E-19
  55535.757     1.471E-19
  55535.847     1.588E-19
  55535.927     1.664E-19
  55536.027     1.646E-19
  55536.097     1.606E-19
  55536.207     1.538E-19
  55536.297     1.465E-19
  55536.387     1.453E-19
  55536.477     1.474E-19
  55536.567     1.491E-19
  55536.638     1.484E-19
  55536.747     1.482E-19
  55536.837     1.451E-19
  55536.927     1.359E-19
  55537.017     1.242E-19
  55537.107     1.100E-19
  55537.198     9.447E-20
  55537.288     7.875E-20
  55537.378     7.116E-20
  55537.464     6.447E-20
  55537.554     5.658E-20
  55537.683     3.218E-20
  55538.964     1.048E-20
  55539.038     1.039E-20
  55539.112     9.917E-21
  55539.186     9.406E-21
  55539.261     9.054E-21
  55539.335     8.768E-21
  55539.409     8.434E-21
  55539.483     8.155E-21
  55539.557     7.893E-21
  55539.631     7.567E-21
  55539.705     7.376E-21
  55539.779     7.106E-21
  55539.853     6.786E-21
  55539.927     6.583E-21
  55540.001     6.333E-21
  55540.075     6.185E-21
  55540.150     5.984E-21
  55540.224     5.864E-21
  55540.298     5.720E-21
  55540.372     5.557E-21
  55540.446     5.413E-21
  55540.520     5.325E-21
  55540.594     5.225E-21
  55540.668     5.127E-21
  55540.742     5.037E-21
  55540.816     4.922E-21
  55540.890     4.789E-21
  55540.964     4.729E-21
  55541.039     4.675E-21
  55541.113     4.596E-21
  55541.187     4.515E-21
  55541.261     4.412E-21
  55541.335     4.381E-21
  55541.409     4.286E-21
  55541.483     4.209E-21
  55541.557     4.151E-21
  55541.631     4.066E-21
  55541.705     4.047E-21
  55541.779     4.054E-21
  55541.853     4.023E-21
  55541.928     4.020E-21
  55542.076     3.946E-21
  55542.150     3.894E-21
  55542.223     3.927E-21
  55542.297     3.925E-21
  55542.370     3.897E-21
  55542.444     3.894E-21
  55542.517     3.854E-21
  55542.591     3.824E-21
  55542.665     3.766E-21
  55542.739     3.711E-21
  55542.813     3.670E-21
  55542.886     3.613E-21
  55542.960     3.565E-21
  55543.033     3.526E-21
  55543.107     3.452E-21
  55543.181     3.423E-21
  55543.254     3.408E-21
  55543.328     3.380E-21
  55543.401     3.430E-21
  55543.475     3.472E-21
  55543.549     3.491E-21
  55543.623     3.490E-21
  55543.696     3.506E-21
  55543.770     3.517E-21
  55543.844     3.508E-21
  55543.917     3.494E-21
  55543.991     3.505E-21
  55544.064     3.531E-21
  55544.138     3.522E-21
  55544.211     3.522E-21
  55544.285     3.538E-21
  55544.359     3.540E-21
  55544.433     3.520E-21
  55544.507     3.488E-21
  55544.580     3.462E-21
  55544.654     3.421E-21
  55544.727     3.345E-21
  55544.801     3.293E-21
  55544.874     3.264E-21
  55544.948     3.229E-21
  55545.021     3.194E-21
  55545.096     3.171E-21
  55545.169     3.144E-21
  55545.243     3.122E-21
  55545.317     3.143E-21
  55545.390     3.204E-21
  55545.464     3.227E-21
  55545.537     3.272E-21
  55545.611     3.323E-21
  55545.685     3.387E-21
  55545.758     3.481E-21
  55545.832     3.539E-21
  55545.906     3.614E-21
  55545.979     3.656E-21
  55546.053     3.709E-21
  55546.126     3.730E-21
  55546.200     3.731E-21
  55546.273     3.693E-21
  55546.347     3.638E-21
  55546.421     3.571E-21
  55546.495     3.490E-21
  55546.568     3.393E-21
  55546.642     3.317E-21
  55546.716     3.248E-21
  55546.789     3.166E-21
  55546.863     3.124E-21
