#  O2 xsec;CfA;O2WB9X0;300 K;54260-54685 cm-1;5022 pts         
#    WNO      SIGMA
  54260.024     1.777E-22
  54260.095     1.788E-22
  54260.166     1.789E-22
  54260.236     1.780E-22
  54260.307     1.773E-22
  54260.377     1.771E-22
  54260.448     1.767E-22
  54260.518     1.766E-22
  54260.589     1.766E-22
  54260.660     1.769E-22
  54260.730     1.763E-22
  54260.801     1.750E-22
  54260.871     1.740E-22
  54260.942     1.725E-22
  54261.012     1.711E-22
  54261.083     1.705E-22
  54261.154     1.705E-22
  54261.224     1.709E-22
  54261.295     1.717E-22
  54261.365     1.723E-22
  54261.436     1.730E-22
  54261.506     1.737E-22
  54261.577     1.739E-22
  54261.648     1.746E-22
  54261.718     1.763E-22
  54261.789     1.786E-22
  54261.859     1.824E-22
  54261.930     1.881E-22
  54262.000     1.954E-22
  54262.071     2.035E-22
  54262.142     2.117E-22
  54262.212     2.177E-22
  54262.283     2.205E-22
  54262.353     2.191E-22
  54262.424     2.142E-22
  54262.495     2.071E-22
  54262.566     1.995E-22
  54262.637     1.927E-22
  54262.707     1.871E-22
  54262.778     1.831E-22
  54262.848     1.809E-22
  54262.919     1.796E-22
  54262.990     1.789E-22
  54263.060     1.777E-22
  54263.131     1.768E-22
  54263.201     1.759E-22
  54263.272     1.755E-22
  54263.343     1.760E-22
  54263.414     1.768E-22
  54263.485     1.776E-22
  54263.555     1.780E-22
  54263.626     1.785E-22
  54263.696     1.788E-22
  54263.767     1.790E-22
  54263.837     1.792E-22
  54263.908     1.795E-22
  54263.979     1.796E-22
  54264.049     1.798E-22
  54264.120     1.802E-22
  54264.191     1.802E-22
  54264.262     1.793E-22
  54264.332     1.785E-22
  54264.403     1.783E-22
  54264.473     1.783E-22
  54264.544     1.787E-22
  54264.615     1.796E-22
  54264.685     1.808E-22
  54264.756     1.819E-22
  54264.827     1.831E-22
  54264.897     1.837E-22
  54264.968     1.840E-22
  54265.039     1.844E-22
  54265.109     1.848E-22
  54265.180     1.854E-22
  54265.251     1.857E-22
  54265.321     1.858E-22
  54265.392     1.860E-22
  54265.462     1.859E-22
  54265.533     1.856E-22
  54265.604     1.857E-22
  54265.675     1.863E-22
  54265.745     1.873E-22
  54265.816     1.885E-22
  54265.887     1.902E-22
  54265.957     1.927E-22
  54266.028     1.955E-22
  54266.098     1.985E-22
  54266.169     2.021E-22
  54266.239     2.064E-22
  54266.310     2.116E-22
  54266.381     2.177E-22
  54266.451     2.250E-22
  54266.523     2.333E-22
  54266.593     2.420E-22
  54266.664     2.504E-22
  54266.734     2.565E-22
  54266.805     2.590E-22
  54266.875     2.590E-22
  54266.946     2.586E-22
  54267.017     2.590E-22
  54267.087     2.616E-22
  54267.158     2.669E-22
  54267.228     2.752E-22
  54267.299     2.852E-22
  54267.369     2.955E-22
  54267.440     3.047E-22
  54267.512     3.113E-22
  54267.582     3.148E-22
  54267.653     3.159E-22
  54267.723     3.146E-22
  54267.794     3.103E-22
  54267.864     3.045E-22
  54267.935     2.987E-22
  54268.005     2.945E-22
  54268.076     2.925E-22
  54268.147     2.917E-22
  54268.217     2.896E-22
  54268.288     2.872E-22
  54268.358     2.854E-22
  54268.429     2.851E-22
  54268.499     2.835E-22
  54268.570     2.804E-22
  54268.641     2.844E-22
  54268.711     2.914E-22
  54268.782     2.975E-22
  54268.852     3.040E-22
  54268.922     3.110E-22
  54268.992     3.155E-22
  54269.063     3.295E-22
  54269.133     3.511E-22
  54269.203     3.755E-22
  54269.273     4.099E-22
  54269.343     4.394E-22
  54269.413     5.120E-22
  54269.483     6.210E-22
  54269.553     7.425E-22
  54269.623     9.348E-22
  54269.693     1.088E-21
  54269.763     1.182E-21
  54269.833     1.249E-21
  54269.904     1.241E-21
  54269.974     1.143E-21
  54270.044     9.923E-22
  54270.114     8.184E-22
  54270.184     6.859E-22
  54270.255     5.851E-22
  54270.326     4.962E-22
  54270.397     4.097E-22
  54270.468     3.558E-22
  54270.539     3.259E-22
  54270.610     3.064E-22
  54270.682     2.936E-22
  54270.754     2.876E-22
  54270.825     2.884E-22
  54270.897     2.896E-22
  54270.968     2.956E-22
  54271.040     3.012E-22
  54271.109     3.126E-22
  54271.178     3.292E-22
  54271.248     3.452E-22
  54271.317     3.714E-22
  54271.386     4.012E-22
  54271.454     4.430E-22
  54271.524     5.107E-22
  54271.592     6.047E-22
  54271.661     7.279E-22
  54271.730     8.734E-22
  54271.869     1.166E-21
  54271.939     1.232E-21
  54272.009     1.257E-21
  54272.079     1.228E-21
  54272.149     1.148E-21
  54272.219     1.026E-21
  54272.290     9.078E-22
  54272.360     8.179E-22
  54272.430     7.357E-22
  54272.500     6.782E-22
  54272.570     6.745E-22
  54272.640     7.067E-22
  54272.711     7.506E-22
  54272.781     8.214E-22
  54272.851     9.118E-22
  54272.921     1.023E-21
  54272.991     1.116E-21
  54273.062     1.153E-21
  54273.132     1.167E-21
  54273.202     1.133E-21
  54273.272     1.045E-21
  54273.342     9.332E-22
  54273.414     8.097E-22
  54273.487     7.041E-22
  54273.559     6.050E-22
  54273.631     5.260E-22
  54273.703     4.598E-22
  54273.775     4.109E-22
  54273.848     3.810E-22
  54273.921     3.553E-22
  54273.993     3.424E-22
  54274.066     3.288E-22
  54274.138     3.189E-22
  54274.211     3.103E-22
  54274.284     3.023E-22
  54274.357     2.976E-22
  54274.427     2.946E-22
  54274.498     2.928E-22
  54274.569     2.903E-22
  54274.639     2.878E-22
  54274.710     2.858E-22
  54274.780     2.847E-22
  54274.851     2.848E-22
  54274.921     2.855E-22
  54274.992     2.854E-22
  54275.063     2.860E-22
  54275.133     2.882E-22
  54275.204     2.918E-22
  54275.274     2.954E-22
  54275.345     2.980E-22
  54275.415     2.999E-22
  54275.486     3.023E-22
  54275.557     3.067E-22
  54275.627     3.138E-22
  54275.698     3.221E-22
  54275.768     3.302E-22
  54275.839     3.395E-22
  54275.910     3.507E-22
  54275.980     3.639E-22
  54276.051     3.793E-22
  54276.121     3.969E-22
  54276.192     4.157E-22
  54276.262     4.351E-22
  54276.333     4.543E-22
  54276.404     4.711E-22
  54276.474     4.844E-22
  54276.545     4.928E-22
  54276.615     4.973E-22
  54276.686     5.001E-22
  54276.757     5.020E-22
  54276.827     5.018E-22
  54276.898     5.005E-22
  54276.968     4.978E-22
  54277.039     4.945E-22
  54277.110     4.919E-22
  54277.182     4.910E-22
  54277.254     4.897E-22
  54277.325     4.895E-22
  54277.397     4.928E-22
  54277.468     5.001E-22
  54277.540     5.100E-22
  54277.611     5.115E-22
  54277.682     5.133E-22
  54277.754     5.097E-22
  54277.825     5.082E-22
  54277.896     5.179E-22
  54277.967     5.307E-22
  54278.038     5.545E-22
  54278.109     5.847E-22
  54278.180     6.364E-22
  54278.252     7.000E-22
  54278.323     7.475E-22
  54278.394     8.358E-22
  54278.464     9.763E-22
  54278.535     1.169E-21
  54278.605     1.446E-21
  54278.676     1.628E-21
  54278.746     1.770E-21
  54278.816     1.864E-21
  54278.886     1.901E-21
  54278.956     1.884E-21
  54279.027     1.831E-21
  54279.097     1.699E-21
  54279.167     1.540E-21
  54279.237     1.361E-21
  54279.307     1.216E-21
  54279.377     1.110E-21
  54279.448     1.032E-21
  54279.518     9.778E-22
  54279.588     9.612E-22
  54279.658     9.878E-22
  54279.728     1.021E-21
  54279.798     1.073E-21
  54279.869     1.136E-21
  54279.939     1.206E-21
  54280.009     1.262E-21
  54280.079     1.332E-21
  54280.149     1.375E-21
  54280.220     1.397E-21
  54280.290     1.401E-21
  54280.360     1.384E-21
  54280.430     1.355E-21
  54280.500     1.316E-21
  54280.570     1.288E-21
  54280.641     1.269E-21
  54280.711     1.257E-21
  54280.781     1.219E-21
  54280.851     1.201E-21
  54280.921     1.182E-21
  54280.991     1.168E-21
  54281.062     1.161E-21
  54281.132     1.161E-21
  54281.202     1.182E-21
  54281.272     1.258E-21
  54281.342     1.205E-21
  54281.413     1.174E-21
  54281.483     1.161E-21
  54281.553     1.140E-21
  54281.623     1.122E-21
  54281.693     1.095E-21
  54281.763     1.063E-21
  54281.834     1.042E-21
  54281.904     1.022E-21
  54281.974     1.002E-21
  54282.044     9.815E-22
  54282.114     9.569E-22
  54282.184     9.552E-22
  54282.255     9.457E-22
  54282.325     9.352E-22
  54282.395     9.354E-22
  54282.465     9.522E-22
  54282.535     9.767E-22
  54282.606     1.001E-21
  54282.676     1.033E-21
  54282.746     1.071E-21
  54282.816     1.077E-21
  54282.886     1.090E-21
  54282.956     1.110E-21
  54283.027     1.159E-21
  54283.097     1.226E-21
  54283.167     1.276E-21
  54283.237     1.323E-21
  54283.307     1.352E-21
  54283.377     1.354E-21
  54283.448     1.321E-21
  54283.518     1.294E-21
  54283.588     1.289E-21
  54283.658     1.307E-21
  54283.728     1.311E-21
  54283.799     1.325E-21
  54283.869     1.356E-21
  54283.939     1.393E-21
  54284.009     1.447E-21
  54284.079     1.489E-21
  54284.149     1.550E-21
  54284.220     1.568E-21
  54284.290     1.660E-21
  54284.360     1.749E-21
  54284.430     1.793E-21
  54284.500     1.875E-21
  54284.570     1.965E-21
  54284.641     2.043E-21
  54284.711     2.127E-21
  54284.781     2.207E-21
  54284.851     2.293E-21
  54284.921     2.432E-21
  54284.992     2.565E-21
  54285.062     2.710E-21
  54285.132     2.874E-21
  54285.413     3.622E-21
  54285.554     4.387E-21
  54285.629     4.952E-21
  54285.706     5.533E-21
  54285.827     6.470E-21
  54285.904     7.353E-21
  54285.984     8.853E-21
  54286.067     1.133E-20
  54286.177     1.459E-20
  54286.261     1.809E-20
  54286.346     2.123E-20
  54286.432     2.425E-20
  54286.517     2.695E-20
  54286.602     2.946E-20
  54286.687     3.175E-20
  54286.767     3.341E-20
  54286.852     3.417E-20
  54286.937     3.398E-20
  54287.022     3.308E-20
  54287.108     3.198E-20
  54287.199     3.117E-20
  54287.278     3.087E-20
  54287.363     3.057E-20
  54287.449     2.987E-20
  54287.534     2.901E-20
  54287.619     2.794E-20
  54287.711     2.682E-20
  54287.790     2.613E-20
  54287.875     2.563E-20
  54287.960     2.492E-20
  54288.052     2.375E-20
  54288.131     2.185E-20
  54288.222     1.961E-20
  54288.291     1.765E-20
  54288.377     1.612E-20
  54288.462     1.496E-20
  54288.547     1.406E-20
  54288.632     1.292E-20
  54288.718     1.132E-20
  54288.801     9.910E-21
  54288.882     8.910E-21
  54288.978     8.044E-21
  54289.060     7.529E-21
  54289.139     7.193E-21
  54289.216     6.795E-21
  54289.331     6.034E-21
  54289.400     5.145E-21
  54289.485     4.508E-21
  54289.570     4.291E-21
  54289.656     4.226E-21
  54289.741     4.041E-21
  54289.828     3.478E-21
  54290.636     2.238E-21
  54291.496     1.557E-21
  54292.330     1.395E-21
  54293.190     1.294E-21
  54294.051     1.458E-21
  54294.516     1.738E-21
  54294.601     2.132E-21
  54294.686     2.257E-21
  54294.772     2.346E-21
  54294.857     2.653E-21
  54294.942     2.912E-21
  54295.027     3.002E-21
  54295.113     3.113E-21
  54295.198     3.203E-21
  54295.283     3.255E-21
  54295.368     3.340E-21
  54295.454     3.559E-21
  54295.539     3.619E-21
  54295.624     3.478E-21
  54295.709     3.547E-21
  54295.795     3.827E-21
  54295.880     4.074E-21
  54295.965     4.136E-21
  54296.050     3.944E-21
  54296.136     3.817E-21
  54296.221     4.047E-21
  54296.306     4.355E-21
  54296.391     4.230E-21
  54296.477     3.955E-21
  54296.562     4.081E-21
  54296.647     4.454E-21
  54296.732     4.472E-21
  54296.818     4.428E-21
  54296.903     4.956E-21
  54296.988     5.727E-21
  54297.074     6.341E-21
  54297.159     6.964E-21
  54297.244     7.927E-21
  54297.329     9.184E-21
  54297.415     1.053E-20
  54297.500     1.182E-20
  54297.585     1.324E-20
  54297.670     1.509E-20
  54297.772     1.721E-20
  54297.857     1.954E-20
  54297.942     2.262E-20
  54298.028     2.696E-20
  54298.113     3.215E-20
  54298.192     3.777E-20
  54298.277     4.366E-20
  54298.363     4.904E-20
  54298.448     5.354E-20
  54298.538     5.735E-20
  54298.623     6.019E-20
  54298.709     6.161E-20
  54298.794     6.146E-20
  54298.879     5.987E-20
  54298.964     5.764E-20
  54299.045     5.561E-20
  54299.135     5.440E-20
  54299.220     5.390E-20
  54299.306     5.292E-20
  54299.391     5.014E-20
  54299.471     4.547E-20
  54299.556     4.125E-20
  54299.641     3.841E-20
  54299.727     3.556E-20
  54299.812     3.242E-20
  54299.897     2.957E-20
  54299.989     2.691E-20
  54300.068     2.388E-20
  54300.159     2.094E-20
  54300.244     1.911E-20
  54300.313     1.766E-20
  54300.398     1.548E-20
  54300.484     1.324E-20
  54300.569     1.195E-20
  54300.654     1.118E-20
  54300.739     1.050E-20
  54300.825     9.828E-21
  54300.910     9.056E-21
  54300.995     8.173E-21
  54301.080     7.396E-21
  54301.166     6.735E-21
  54301.251     6.228E-21
  54301.342     5.047E-21
  54301.414     4.592E-21
  54301.553     4.047E-21
  54301.623     3.843E-21
  54301.693     3.604E-21
  54301.764     3.438E-21
  54301.834     3.305E-21
  54301.904     3.166E-21
  54301.974     3.053E-21
  54302.044     2.953E-21
  54302.115     2.844E-21
  54302.185     2.780E-21
  54302.255     2.704E-21
  54302.325     2.619E-21
  54302.395     2.517E-21
  54302.465     2.406E-21
  54302.536     2.344E-21
  54302.606     2.306E-21
  54302.676     2.234E-21
  54302.746     2.197E-21
  54302.816     2.158E-21
  54302.886     2.089E-21
  54302.957     2.040E-21
  54303.027     2.000E-21
  54303.097     1.949E-21
  54303.167     1.884E-21
  54303.237     1.838E-21
  54303.308     1.801E-21
  54303.378     1.722E-21
  54303.448     1.697E-21
  54303.518     1.663E-21
  54303.588     1.600E-21
  54303.658     1.579E-21
  54303.729     1.567E-21
  54303.799     1.546E-21
  54303.869     1.582E-21
  54303.939     1.587E-21
  54304.009     1.572E-21
  54304.079     1.527E-21
  54304.150     1.550E-21
  54304.220     1.633E-21
  54304.290     1.787E-21
  54304.360     1.937E-21
  54304.430     2.089E-21
  54304.501     2.290E-21
  54304.571     2.541E-21
  54304.641     2.905E-21
  54304.711     3.248E-21
  54304.781     3.601E-21
  54304.851     3.946E-21
  54304.922     4.184E-21
  54304.992     4.233E-21
  54305.062     4.134E-21
  54305.132     3.849E-21
  54305.202     3.494E-21
  54305.272     3.205E-21
  54305.343     2.959E-21
  54305.413     2.710E-21
  54305.483     2.523E-21
  54305.553     2.486E-21
  54305.623     2.467E-21
  54305.693     2.538E-21
  54305.764     2.648E-21
  54305.834     2.800E-21
  54305.904     2.900E-21
  54305.974     3.008E-21
  54306.044     3.109E-21
  54306.115     3.196E-21
  54306.185     3.262E-21
  54306.255     3.259E-21
  54306.325     3.222E-21
  54306.395     3.186E-21
  54306.465     3.106E-21
  54306.536     3.034E-21
  54306.606     2.902E-21
  54306.676     2.748E-21
  54306.746     2.640E-21
  54306.816     2.532E-21
  54306.886     2.463E-21
  54306.957     2.417E-21
  54307.027     2.352E-21
  54307.097     2.326E-21
  54307.167     2.296E-21
  54307.237     2.259E-21
  54307.308     2.173E-21
  54307.378     2.065E-21
  54307.448     1.947E-21
  54307.518     1.853E-21
  54307.588     1.750E-21
  54307.658     1.628E-21
  54307.729     1.477E-21
  54307.799     1.368E-21
  54307.869     1.283E-21
  54307.939     1.210E-21
  54308.009     1.133E-21
  54308.079     1.067E-21
  54308.150     1.007E-21
  54308.220     9.614E-22
  54308.290     8.990E-22
  54308.360     8.606E-22
  54308.430     8.297E-22
  54308.501     7.977E-22
  54308.571     7.732E-22
  54308.641     7.332E-22
  54308.711     7.051E-22
  54308.781     6.860E-22
  54308.851     6.566E-22
  54308.922     6.318E-22
  54308.992     6.037E-22
  54309.062     5.959E-22
  54309.132     5.735E-22
  54309.202     5.637E-22
  54309.272     5.391E-22
  54309.343     5.296E-22
  54309.413     5.190E-22
  54309.483     4.999E-22
  54309.553     5.014E-22
  54309.624     4.914E-22
  54309.695     4.877E-22
  54309.766     4.698E-22
  54309.837     4.645E-22
  54309.908     4.606E-22
  54309.979     4.537E-22
  54310.050     4.323E-22
  54310.122     4.184E-22
  54310.193     4.150E-22
  54310.265     4.144E-22
  54310.335     4.112E-22
  54310.407     4.051E-22
  54310.479     3.928E-22
  54310.550     3.810E-22
  54310.622     3.771E-22
  54310.694     3.737E-22
  54310.765     3.678E-22
  54310.837     3.612E-22
  54310.909     3.543E-22
  54310.980     3.492E-22
  54311.052     3.448E-22
  54311.123     3.404E-22
  54311.193     3.363E-22
  54311.264     3.319E-22
  54311.335     3.287E-22
  54311.405     3.267E-22
  54311.476     3.250E-22
  54311.547     3.240E-22
  54311.617     3.212E-22
  54311.688     3.165E-22
  54311.759     3.124E-22
  54311.829     3.087E-22
  54311.900     3.056E-22
  54311.971     3.037E-22
  54312.041     3.017E-22
  54312.112     2.989E-22
  54312.183     2.970E-22
  54312.253     2.958E-22
  54312.324     2.944E-22
  54312.395     2.929E-22
  54312.465     2.911E-22
  54312.536     2.890E-22
  54312.607     2.871E-22
  54312.677     2.852E-22
  54312.748     2.830E-22
  54312.819     2.811E-22
  54312.889     2.806E-22
  54312.960     2.808E-22
  54313.031     2.808E-22
  54313.101     2.808E-22
  54313.173     2.799E-22
  54313.244     2.788E-22
  54313.314     2.779E-22
  54313.385     2.771E-22
  54313.457     2.760E-22
  54313.527     2.749E-22
  54313.598     2.737E-22
  54313.670     2.718E-22
  54313.740     2.688E-22
  54313.811     2.658E-22
  54313.882     2.631E-22
  54313.953     2.616E-22
  54314.024     2.607E-22
  54314.095     2.600E-22
  54314.166     2.598E-22
  54314.237     2.596E-22
  54314.308     2.590E-22
  54314.379     2.580E-22
  54314.450     2.569E-22
  54314.521     2.556E-22
  54314.592     2.545E-22
  54314.663     2.539E-22
  54314.734     2.535E-22
  54314.804     2.531E-22
  54314.876     2.525E-22
  54314.947     2.518E-22
  54315.017     2.516E-22
  54315.089     2.521E-22
  54315.159     2.529E-22
  54315.230     2.539E-22
  54315.301     2.548E-22
  54315.372     2.557E-22
  54315.443     2.567E-22
  54315.514     2.578E-22
  54315.585     2.587E-22
  54315.656     2.600E-22
  54315.727     2.618E-22
  54315.798     2.642E-22
  54315.869     2.664E-22
  54315.940     2.674E-22
  54316.011     2.675E-22
  54316.082     2.672E-22
  54316.153     2.657E-22
  54316.224     2.637E-22
  54316.295     2.626E-22
  54316.366     2.620E-22
  54316.437     2.612E-22
  54316.507     2.600E-22
  54316.579     2.592E-22
  54316.649     2.588E-22
  54316.720     2.584E-22
  54316.792     2.575E-22
  54316.863     2.560E-22
  54316.933     2.538E-22
  54317.005     2.517E-22
  54317.076     2.499E-22
  54317.146     2.482E-22
  54317.217     2.472E-22
  54317.289     2.464E-22
  54317.359     2.457E-22
  54317.430     2.452E-22
  54317.502     2.446E-22
  54317.572     2.441E-22
  54317.643     2.438E-22
  54317.715     2.438E-22
  54317.785     2.439E-22
  54317.856     2.435E-22
  54317.927     2.433E-22
  54317.998     2.439E-22
  54318.069     2.453E-22
  54318.140     2.477E-22
  54318.210     2.513E-22
  54318.281     2.556E-22
  54318.352     2.610E-22
  54318.422     2.671E-22
  54318.493     2.737E-22
  54318.564     2.796E-22
  54318.634     2.839E-22
  54318.705     2.873E-22
  54318.776     2.913E-22
  54318.846     2.961E-22
  54318.917     3.014E-22
  54318.988     3.078E-22
  54319.059     3.151E-22
  54319.129     3.230E-22
  54319.200     3.331E-22
  54319.271     3.457E-22
  54319.341     3.602E-22
  54319.412     3.760E-22
  54319.483     3.910E-22
  54319.553     4.038E-22
  54319.624     4.146E-22
  54319.695     4.245E-22
  54319.765     4.352E-22
  54319.836     4.475E-22
  54319.907     4.593E-22
  54319.977     4.673E-22
  54320.048     4.670E-22
  54320.119     4.570E-22
  54320.189     4.378E-22
  54320.260     4.140E-22
  54320.331     3.887E-22
  54320.401     3.652E-22
  54320.472     3.459E-22
  54320.543     3.308E-22
  54320.613     3.190E-22
