#  O2 xsec;CfA;O2WB8X0;300 K;53746-54260 cm-1;7006 pts         
#    WNO      SIGMA
  53746.048     2.390E-22
  53746.118     2.453E-22
  53746.187     2.514E-22
  53746.256     2.579E-22
  53746.325     2.647E-22
  53746.394     2.719E-22
  53746.463     2.798E-22
  53746.533     2.871E-22
  53746.600     2.955E-22
  53746.667     3.050E-22
  53746.734     3.132E-22
  53746.801     3.271E-22
  53746.868     3.439E-22
  53746.936     3.623E-22
  53747.003     3.756E-22
  53747.071     4.040E-22
  53747.138     4.396E-22
  53747.205     4.701E-22
  53747.272     5.017E-22
  53747.340     5.262E-22
  53747.407     5.537E-22
  53747.543     6.978E-22
  53747.612     7.668E-22
  53747.681     8.364E-22
  53747.751     9.144E-22
  53747.820     1.006E-21
  53747.889     1.135E-21
  53747.958     1.236E-21
  53748.027     1.312E-21
  53748.096     1.357E-21
  53748.166     1.418E-21
  53748.235     1.466E-21
  53748.304     1.488E-21
  53748.373     1.490E-21
  53748.442     1.501E-21
  53748.511     1.505E-21
  53748.581     1.521E-21
  53748.650     1.523E-21
  53748.719     1.524E-21
  53748.788     1.514E-21
  53748.857     1.521E-21
  53748.926     1.534E-21
  53748.996     1.526E-21
  53749.065     1.542E-21
  53749.134     1.553E-21
  53749.203     1.570E-21
  53749.272     1.527E-21
  53749.341     1.486E-21
  53749.411     1.437E-21
  53749.480     1.415E-21
  53749.549     1.372E-21
  53749.618     1.300E-21
  53749.687     1.245E-21
  53749.756     1.192E-21
  53749.825     1.129E-21
  53749.895     1.086E-21
  53749.964     1.019E-21
  53750.033     9.590E-22
  53750.102     9.091E-22
  53750.171     8.445E-22
  53750.240     7.706E-22
  53750.310     6.992E-22
  53750.379     6.375E-22
  53750.448     5.863E-22
  53750.517     5.503E-22
  53750.586     5.464E-22
  53750.655     5.262E-22
  53750.725     5.020E-22
  53750.796     4.865E-22
  53750.867     4.592E-22
  53750.938     4.347E-22
  53751.009     4.210E-22
  53751.080     4.036E-22
  53751.152     3.887E-22
  53751.223     3.728E-22
  53751.294     3.616E-22
  53751.366     3.501E-22
  53751.437     3.364E-22
  53751.508     3.253E-22
  53751.579     3.154E-22
  53751.650     3.036E-22
  53751.722     2.953E-22
  53751.791     2.883E-22
  53751.860     2.827E-22
  53751.929     2.775E-22
  53751.998     2.725E-22
  53752.068     2.674E-22
  53752.137     2.622E-22
  53752.206     2.574E-22
  53752.275     2.534E-22
  53752.344     2.498E-22
  53752.413     2.463E-22
  53752.483     2.431E-22
  53752.552     2.399E-22
  53752.621     2.365E-22
  53752.690     2.336E-22
  53752.759     2.314E-22
  53752.829     2.298E-22
  53752.898     2.295E-22
  53752.967     2.299E-22
  53753.036     2.306E-22
  53753.105     2.308E-22
  53753.175     2.298E-22
  53753.244     2.281E-22
  53753.313     2.268E-22
  53753.382     2.254E-22
  53753.451     2.243E-22
  53753.521     2.233E-22
  53753.590     2.219E-22
  53753.659     2.206E-22
  53753.728     2.196E-22
  53753.797     2.192E-22
  53753.867     2.188E-22
  53753.936     2.186E-22
  53754.005     2.181E-22
  53754.074     2.174E-22
  53754.143     2.179E-22
  53754.213     2.189E-22
  53754.282     2.198E-22
  53754.351     2.204E-22
  53754.420     2.208E-22
  53754.489     2.210E-22
  53754.559     2.209E-22
  53754.628     2.213E-22
  53754.697     2.222E-22
  53754.766     2.224E-22
  53754.835     2.226E-22
  53754.905     2.235E-22
  53754.974     2.254E-22
  53755.043     2.275E-22
  53755.112     2.283E-22
  53755.181     2.282E-22
  53755.251     2.279E-22
  53755.320     2.288E-22
  53755.389     2.307E-22
  53755.458     2.329E-22
  53755.527     2.351E-22
  53755.597     2.369E-22
  53755.666     2.390E-22
  53755.735     2.412E-22
  53755.804     2.439E-22
  53755.873     2.467E-22
  53755.943     2.491E-22
  53756.012     2.510E-22
  53756.081     2.535E-22
  53756.150     2.559E-22
  53756.219     2.580E-22
  53756.289     2.592E-22
  53756.358     2.595E-22
  53756.427     2.600E-22
  53756.496     2.617E-22
  53756.565     2.646E-22
  53756.635     2.678E-22
  53756.704     2.710E-22
  53756.773     2.752E-22
  53756.842     2.794E-22
  53756.912     2.826E-22
  53756.981     2.852E-22
  53757.050     2.869E-22
  53757.119     2.884E-22
  53757.188     2.912E-22
  53757.258     2.953E-22
  53757.327     3.009E-22
  53757.396     3.072E-22
  53757.465     3.136E-22
  53757.532     3.204E-22
  53757.601     3.278E-22
  53757.668     3.335E-22
  53757.736     3.397E-22
  53757.803     3.459E-22
  53757.871     3.549E-22
  53757.939     3.625E-22
  53758.006     3.787E-22
  53758.074     3.961E-22
  53758.142     4.073E-22
  53758.209     4.205E-22
  53758.277     4.349E-22
  53758.345     4.492E-22
  53758.412     4.583E-22
  53758.480     4.804E-22
  53758.548     5.136E-22
  53758.615     5.301E-22
  53758.683     5.563E-22
  53758.750     5.862E-22
  53758.818     6.069E-22
  53758.955     7.110E-22
  53759.024     7.448E-22
  53759.093     8.083E-22
  53759.162     8.638E-22
  53759.231     9.186E-22
  53759.300     9.701E-22
  53759.370     1.056E-21
  53759.439     1.152E-21
  53759.508     1.258E-21
  53759.577     1.342E-21
  53759.646     1.435E-21
  53759.715     1.551E-21
  53759.785     1.663E-21
  53759.854     1.767E-21
  53759.923     1.857E-21
  53759.992     1.959E-21
  53760.061     2.047E-21
  53760.130     2.112E-21
  53760.199     2.151E-21
  53760.269     2.210E-21
  53760.338     2.250E-21
  53760.407     2.274E-21
  53760.476     2.285E-21
  53760.545     2.292E-21
  53760.614     2.289E-21
  53760.684     2.302E-21
  53760.753     2.304E-21
  53760.822     2.278E-21
  53760.891     2.217E-21
  53760.960     2.184E-21
  53761.029     2.153E-21
  53761.098     2.091E-21
  53761.168     1.982E-21
  53761.237     1.894E-21
  53761.306     1.786E-21
  53761.375     1.702E-21
  53761.444     1.595E-21
  53761.513     1.489E-21
  53761.583     1.396E-21
  53761.652     1.318E-21
  53761.721     1.252E-21
  53761.790     1.187E-21
  53761.859     1.138E-21
  53761.928     1.102E-21
  53761.998     1.060E-21
  53762.067     1.009E-21
  53762.136     9.685E-22
  53762.205     9.518E-22
  53762.274     9.447E-22
  53762.343     9.232E-22
  53762.412     8.776E-22
  53762.482     8.371E-22
  53762.551     8.306E-22
  53762.620     8.201E-22
  53762.689     7.901E-22
  53762.758     7.785E-22
  53762.827     7.564E-22
  53762.897     7.359E-22
  53762.966     7.292E-22
  53763.035     7.418E-22
  53763.104     7.407E-22
  53763.173     7.367E-22
  53763.242     7.344E-22
  53763.311     7.285E-22
  53763.381     7.150E-22
  53763.450     7.239E-22
  53763.519     7.499E-22
  53763.588     7.640E-22
  53763.657     7.811E-22
  53763.726     7.720E-22
  53763.796     7.697E-22
  53763.865     7.740E-22
  53763.934     7.844E-22
  53764.003     8.043E-22
  53764.072     8.425E-22
  53764.141     8.696E-22
  53764.210     8.867E-22
  53764.280     8.917E-22
  53764.349     8.981E-22
  53764.418     8.862E-22
  53764.487     9.063E-22
  53764.556     9.463E-22
  53764.625     9.687E-22
  53764.695     1.006E-21
  53764.764     1.024E-21
  53764.833     1.042E-21
  53764.902     1.088E-21
  53764.971     1.131E-21
  53765.040     1.173E-21
  53765.109     1.229E-21
  53765.179     1.303E-21
  53765.248     1.332E-21
  53765.317     1.338E-21
  53765.386     1.368E-21
  53765.455     1.408E-21
  53765.524     1.460E-21
  53765.594     1.517E-21
  53765.663     1.553E-21
  53765.732     1.601E-21
  53765.801     1.642E-21
  53765.870     1.705E-21
  53765.939     1.805E-21
  53766.008     1.893E-21
  53766.078     1.996E-21
  53766.147     2.070E-21
  53766.216     2.164E-21
  53766.285     2.263E-21
  53766.354     2.352E-21
  53766.425     2.458E-21
  53766.559     2.788E-21
  53766.630     2.959E-21
  53766.703     3.154E-21
  53766.777     3.381E-21
  53766.895     3.787E-21
  53766.970     4.133E-21
  53767.046     4.535E-21
  53767.124     4.980E-21
  53767.204     5.372E-21
  53767.304     5.889E-21
  53767.369     6.294E-21
  53767.449     6.732E-21
  53767.530     7.162E-21
  53767.614     7.568E-21
  53767.698     7.977E-21
  53767.782     8.416E-21
  53767.866     8.725E-21
  53767.950     8.794E-21
  53768.034     8.751E-21
  53768.118     8.767E-21
  53768.202     8.831E-21
  53768.286     8.835E-21
  53768.370     8.714E-21
  53768.454     8.465E-21
  53768.538     8.139E-21
  53768.621     7.863E-21
  53768.705     7.739E-21
  53768.789     7.711E-21
  53768.873     7.593E-21
  53768.959     7.193E-21
  53769.042     6.706E-21
  53769.124     6.264E-21
  53769.236     5.893E-21
  53769.317     5.559E-21
  53769.396     5.215E-21
  53769.473     4.909E-21
  53769.548     4.672E-21
  53769.663     4.290E-21
  53769.739     4.116E-21
  53769.813     3.917E-21
  53769.885     3.711E-21
  53769.954     3.518E-21
  53770.087     3.255E-21
  53770.158     3.128E-21
  53770.227     2.984E-21
  53770.296     2.816E-21
  53770.365     2.728E-21
  53770.434     2.603E-21
  53770.503     2.494E-21
  53770.572     2.439E-21
  53770.642     2.424E-21
  53770.711     2.340E-21
  53770.780     2.263E-21
  53770.849     2.194E-21
  53770.918     2.124E-21
  53770.987     2.057E-21
  53771.056     2.033E-21
  53771.126     2.003E-21
  53771.195     1.961E-21
  53771.264     1.925E-21
  53771.333     1.884E-21
  53771.402     1.843E-21
  53771.471     1.814E-21
  53771.541     1.783E-21
  53771.610     1.771E-21
  53771.679     1.766E-21
  53771.748     1.749E-21
  53771.817     1.723E-21
  53771.886     1.699E-21
  53771.955     1.680E-21
  53772.025     1.668E-21
  53772.094     1.676E-21
  53772.163     1.691E-21
  53772.232     1.699E-21
  53772.301     1.700E-21
  53772.370     1.716E-21
  53772.439     1.719E-21
  53772.509     1.738E-21
  53772.578     1.727E-21
  53772.647     1.727E-21
  53772.716     1.752E-21
  53772.785     1.787E-21
  53772.854     1.810E-21
  53772.923     1.831E-21
  53772.993     1.847E-21
  53773.062     1.873E-21
  53773.131     1.918E-21
  53773.200     1.954E-21
  53773.269     1.988E-21
  53773.338     2.015E-21
  53773.408     2.079E-21
  53773.477     2.148E-21
  53773.546     2.202E-21
  53773.615     2.256E-21
  53773.684     2.343E-21
  53773.753     2.454E-21
  53773.822     2.547E-21
  53773.892     2.617E-21
  53773.961     2.724E-21
  53774.030     2.845E-21
  53774.099     2.936E-21
  53774.168     3.045E-21
  53774.237     3.153E-21
  53774.306     3.306E-21
  53774.376     3.449E-21
  53774.445     3.613E-21
  53774.514     3.757E-21
  53774.584     4.006E-21
  53774.656     4.350E-21
  53774.727     4.659E-21
  53774.850     5.278E-21
  53774.923     5.712E-21
  53775.006     6.212E-21
  53775.075     6.878E-21
  53775.153     7.608E-21
  53775.256     8.526E-21
  53775.335     9.383E-21
  53775.410     1.031E-20
  53775.499     1.133E-20
  53775.500     1.154E-20
  53775.577     1.242E-20
  53775.661     1.322E-20
  53775.745     1.386E-20
  53775.829     1.441E-20
  53775.913     1.507E-20
  53775.997     1.584E-20
  53776.081     1.653E-20
  53776.164     1.703E-20
  53776.248     1.729E-20
  53776.332     1.731E-20
  53776.416     1.708E-20
  53776.500     1.663E-20
  53776.584     1.609E-20
  53776.667     1.561E-20
  53776.751     1.520E-20
  53776.841     1.482E-20
  53776.919     1.437E-20
  53777.003     1.383E-20
  53777.087     1.326E-20
  53777.170     1.269E-20
  53777.254     1.213E-20
  53777.344     1.156E-20
  53777.428     1.091E-20
  53777.506     1.017E-20
  53777.596     9.354E-21
  53777.680     8.532E-21
  53777.764     7.823E-21
  53777.847     7.323E-21
  53777.931     6.966E-21
  53778.017     6.633E-21
  53778.101     6.322E-21
  53778.182     6.008E-21
  53778.261     5.633E-21
  53778.376     5.196E-21
  53778.454     4.864E-21
  53778.529     4.592E-21
  53778.603     4.337E-21
  53778.725     3.963E-21
  53778.799     3.772E-21
  53778.870     3.636E-21
  53778.939     3.548E-21
  53779.008     3.409E-21
  53779.078     3.273E-21
  53779.147     3.134E-21
  53779.216     3.008E-21
  53779.285     2.910E-21
  53779.354     2.819E-21
  53779.423     2.758E-21
  53779.492     2.696E-21
  53779.562     2.595E-21
  53779.631     2.472E-21
  53779.700     2.406E-21
  53779.769     2.332E-21
  53779.838     2.280E-21
  53779.907     2.216E-21
  53779.976     2.122E-21
  53780.046     2.047E-21
  53780.115     1.956E-21
  53780.184     1.893E-21
  53780.253     1.850E-21
  53780.322     1.811E-21
  53780.391     1.741E-21
  53780.460     1.699E-21
  53780.530     1.608E-21
  53780.599     1.564E-21
  53780.668     1.531E-21
  53780.737     1.505E-21
  53780.806     1.480E-21
  53780.875     1.452E-21
  53780.944     1.419E-21
  53781.014     1.377E-21
  53781.083     1.344E-21
  53781.152     1.311E-21
  53781.221     1.258E-21
  53781.290     1.210E-21
  53781.359     1.173E-21
  53781.428     1.148E-21
  53781.498     1.139E-21
  53781.567     1.141E-21
  53781.636     1.144E-21
  53781.705     1.127E-21
  53781.774     1.097E-21
  53781.843     1.075E-21
  53781.912     1.019E-21
  53781.982     1.000E-21
  53782.051     9.668E-22
  53782.120     9.450E-22
  53782.189     9.056E-22
  53782.258     8.734E-22
  53782.327     8.639E-22
  53782.396     8.619E-22
  53782.466     8.268E-22
  53782.535     7.864E-22
  53782.604     7.680E-22
  53782.673     7.699E-22
  53782.742     7.541E-22
  53782.811     7.774E-22
  53782.880     7.636E-22
  53782.950     7.324E-22
  53783.019     7.119E-22
  53783.087     6.885E-22
  53783.156     6.659E-22
  53783.225     6.475E-22
  53783.294     6.489E-22
  53783.363     6.435E-22
  53783.432     6.343E-22
  53783.501     6.234E-22
  53783.570     6.227E-22
  53783.639     6.172E-22
  53783.708     6.115E-22
  53783.777     6.011E-22
  53783.846     5.876E-22
  53783.915     5.771E-22
  53783.985     5.674E-22
  53784.054     5.590E-22
  53784.123     5.527E-22
  53784.192     5.479E-22
  53784.262     5.437E-22
  53784.331     5.409E-22
  53784.400     5.422E-22
  53784.470     5.457E-22
  53784.539     5.460E-22
  53784.608     5.441E-22
  53784.677     5.410E-22
  53784.747     5.389E-22
  53784.816     5.395E-22
  53784.885     5.417E-22
  53784.954     5.445E-22
  53785.024     5.450E-22
  53785.093     5.433E-22
  53785.162     5.428E-22
  53785.232     5.462E-22
  53785.301     5.516E-22
  53785.370     5.597E-22
  53785.439     5.637E-22
  53785.509     5.717E-22
  53785.578     5.879E-22
  53785.647     6.024E-22
  53785.716     6.200E-22
  53785.785     6.349E-22
  53785.854     6.610E-22
  53785.923     6.701E-22
  53785.992     6.791E-22
  53786.061     7.170E-22
  53786.130     7.571E-22
  53786.268     8.372E-22
  53786.337     8.743E-22
  53786.407     9.163E-22
  53786.476     9.717E-22
  53786.545     1.052E-21
  53786.614     1.130E-21
  53786.683     1.210E-21
  53786.752     1.279E-21
  53786.821     1.380E-21
  53786.891     1.506E-21
  53786.960     1.598E-21
  53787.029     1.719E-21
  53787.098     1.819E-21
  53787.167     1.893E-21
  53787.236     1.954E-21
  53787.305     2.027E-21
  53787.375     2.073E-21
  53787.444     2.121E-21
  53787.513     2.160E-21
  53787.582     2.179E-21
  53787.651     2.200E-21
  53787.720     2.184E-21
  53787.789     2.180E-21
  53787.859     2.188E-21
  53787.928     2.170E-21
  53787.997     2.180E-21
  53788.066     2.185E-21
  53788.135     2.188E-21
  53788.204     2.176E-21
  53788.273     2.133E-21
  53788.342     2.109E-21
  53788.412     2.115E-21
  53788.481     2.062E-21
  53788.550     1.994E-21
  53788.619     1.918E-21
  53788.688     1.810E-21
  53788.757     1.734E-21
  53788.826     1.650E-21
  53788.896     1.563E-21
  53788.965     1.461E-21
  53789.034     1.362E-21
  53789.103     1.266E-21
  53789.172     1.183E-21
  53789.241     1.104E-21
  53789.310     1.039E-21
  53789.380     9.552E-22
  53789.449     8.866E-22
  53789.518     8.542E-22
  53789.587     8.032E-22
  53789.656     7.404E-22
  53789.725     7.160E-22
  53789.794     6.912E-22
  53789.864     6.461E-22
  53789.933     6.213E-22
  53790.002     6.130E-22
  53790.071     5.894E-22
  53790.140     5.551E-22
  53790.209     5.452E-22
  53790.278     5.059E-22
  53790.347     4.513E-22
  53790.418     4.418E-22
  53790.488     4.361E-22
  53790.558     4.287E-22
  53790.627     4.257E-22
  53790.697     4.393E-22
  53790.767     4.332E-22
  53790.838     4.215E-22
  53790.908     4.035E-22
  53790.978     3.906E-22
  53791.048     3.836E-22
  53791.118     3.804E-22
  53791.188     3.775E-22
  53791.258     3.680E-22
  53791.329     3.600E-22
  53791.398     3.535E-22
  53791.467     3.483E-22
  53791.537     3.427E-22
  53791.606     3.374E-22
  53791.675     3.328E-22
  53791.745     3.295E-22
  53791.814     3.263E-22
  53791.883     3.229E-22
  53791.952     3.203E-22
  53792.022     3.194E-22
  53792.091     3.194E-22
  53792.160     3.189E-22
  53792.230     3.171E-22
  53792.299     3.138E-22
  53792.368     3.098E-22
  53792.437     3.076E-22
  53792.507     3.071E-22
  53792.576     3.071E-22
  53792.645     3.073E-22
  53792.715     3.074E-22
  53792.784     3.071E-22
  53792.853     3.068E-22
  53792.923     3.058E-22
  53792.992     3.042E-22
  53793.061     3.034E-22
  53793.130     3.032E-22
  53793.200     3.049E-22
  53793.269     3.083E-22
  53793.338     3.123E-22
  53793.408     3.164E-22
  53793.477     3.212E-22
  53793.546     3.260E-22
  53793.616     3.299E-22
  53793.685     3.330E-22
  53793.754     3.364E-22
  53793.823     3.405E-22
  53793.893     3.439E-22
  53793.962     3.457E-22
  53794.031     3.470E-22
  53794.101     3.487E-22
  53794.170     3.508E-22
  53794.239     3.517E-22
  53794.309     3.519E-22
  53794.378     3.520E-22
  53794.447     3.539E-22
  53794.516     3.568E-22
  53794.586     3.601E-22
  53794.655     3.635E-22
  53794.724     3.679E-22
  53794.794     3.733E-22
  53794.863     3.791E-22
  53794.932     3.849E-22
  53795.000     3.913E-22
  53795.068     3.975E-22
  53795.135     4.067E-22
  53795.203     4.163E-22
  53795.271     4.317E-22
  53795.338     4.458E-22
  53795.406     4.491E-22
  53795.474     4.638E-22
  53795.541     4.763E-22
  53795.609     4.965E-22
  53795.676     5.176E-22
  53795.743     5.324E-22
  53795.811     5.622E-22
  53795.947     6.342E-22
  53796.017     6.575E-22
  53796.086     6.801E-22
  53796.155     7.269E-22
  53796.224     7.792E-22
  53796.293     8.164E-22
  53796.362     8.649E-22
  53796.431     9.523E-22
  53796.501     1.069E-21
  53796.570     1.178E-21
  53796.639     1.273E-21
  53796.708     1.369E-21
  53796.777     1.476E-21
  53796.846     1.611E-21
  53796.915     1.735E-21
  53796.984     1.851E-21
  53797.054     1.959E-21
  53797.123     2.029E-21
  53797.192     2.125E-21
  53797.261     2.229E-21
  53797.330     2.309E-21
  53797.399     2.366E-21
  53797.468     2.421E-21
  53797.537     2.468E-21
  53797.607     2.468E-21
  53797.676     2.466E-21
  53797.745     2.437E-21
  53797.814     2.426E-21
  53797.883     2.416E-21
  53797.952     2.395E-21
  53798.021     2.378E-21
  53798.091     2.342E-21
  53798.160     2.252E-21
  53798.229     2.145E-21
  53798.298     2.046E-21
  53798.367     1.943E-21
  53798.436     1.833E-21
  53798.505     1.729E-21
  53798.574     1.633E-21
  53798.644     1.534E-21
  53798.713     1.443E-21
  53798.782     1.368E-21
  53798.851     1.286E-21
  53798.920     1.228E-21
  53798.989     1.161E-21
  53799.058     1.104E-21
  53799.128     1.051E-21
  53799.197     9.994E-22
  53799.266     9.689E-22
  53799.335     9.581E-22
  53799.404     9.257E-22
  53799.473     8.987E-22
  53799.542     8.926E-22
  53799.611     9.025E-22
  53799.681     9.058E-22
  53799.750     9.282E-22
  53799.819     9.910E-22
  53799.888     1.065E-21
  53799.957     1.107E-21
  53800.026     1.142E-21
  53800.095     1.200E-21
  53800.165     1.237E-21
  53800.234     1.253E-21
  53800.303     1.262E-21
  53800.372     1.247E-21
  53800.441     1.205E-21
  53800.510     1.182E-21
  53800.579     1.158E-21
