#  O2 xsec;CfA;O2WB10X0;300 K;54685-55115 cm-1;4816 pts        
#    WNO      SIGMA
  54685.019     5.379E-22
  54685.877     5.191E-22
  54687.539     6.477E-22
  54687.893     1.678E-21
  54687.980     1.938E-21
  54688.067     2.177E-21
  54688.154     2.625E-21
  54688.241     3.329E-21
  54688.328     3.860E-21
  54688.415     4.161E-21
  54688.501     4.350E-21
  54688.588     4.638E-21
  54688.675     4.780E-21
  54688.762     4.463E-21
  54688.849     3.713E-21
  54688.936     2.804E-21
  54689.023     1.959E-21
  54689.110     1.462E-21
  54689.197     1.542E-21
  54689.284     1.864E-21
  54689.371     1.811E-21
  54689.457     1.406E-21
  54689.544     1.190E-21
  54689.631     1.350E-21
  54689.718     1.618E-21
  54689.805     1.753E-21
  54689.892     1.595E-21
  54689.979     1.400E-21
  54690.066     1.245E-21
  54690.153     1.079E-21
  54690.240     1.404E-21
  54690.327     2.328E-21
  54690.413     3.385E-21
  54690.500     4.408E-21
  54690.587     5.197E-21
  54690.674     5.583E-21
  54690.761     5.948E-21
  54690.848     6.571E-21
  54690.935     6.796E-21
  54691.022     6.366E-21
  54691.109     6.030E-21
  54691.196     5.813E-21
  54691.283     5.105E-21
  54691.369     4.067E-21
  54691.453     3.175E-21
  54691.548     2.554E-21
  54691.633     2.165E-21
  54691.715     1.816E-21
  54691.794     1.458E-21
  54691.869     1.152E-21
  54692.069     8.683E-22
  54692.145     7.347E-22
  54692.217     6.512E-22
  54692.358     5.858E-22
  54692.430     5.844E-22
  54692.502     5.875E-22
  54692.574     5.925E-22
  54692.646     5.985E-22
  54692.718     5.981E-22
  54692.790     5.948E-22
  54692.862     5.886E-22
  54692.934     5.811E-22
  54693.006     5.711E-22
  54693.078     5.673E-22
  54693.150     5.610E-22
  54693.222     5.550E-22
  54693.294     5.554E-22
  54693.366     5.577E-22
  54693.438     5.515E-22
  54693.510     5.496E-22
  54693.582     5.495E-22
  54693.654     5.510E-22
  54693.726     5.505E-22
  54693.798     5.564E-22
  54693.870     5.591E-22
  54693.942     5.673E-22
  54694.014     5.710E-22
  54694.086     5.738E-22
  54694.158     5.794E-22
  54694.230     5.875E-22
  54694.302     6.013E-22
  54694.374     6.116E-22
  54694.446     6.225E-22
  54694.518     6.353E-22
  54694.590     6.563E-22
  54694.662     6.874E-22
  54694.734     7.155E-22
  54694.806     7.307E-22
  54694.878     7.346E-22
  54694.949     7.389E-22
  54695.021     7.345E-22
  54695.093     7.288E-22
  54695.165     7.264E-22
  54695.237     7.194E-22
  54695.309     7.154E-22
  54695.381     7.050E-22
  54695.453     7.049E-22
  54695.525     7.027E-22
  54695.597     7.020E-22
  54695.669     7.062E-22
  54695.741     7.141E-22
  54695.813     7.268E-22
  54695.885     7.386E-22
  54695.957     7.492E-22
  54696.029     7.637E-22
  54696.101     7.807E-22
  54696.173     7.895E-22
  54696.245     8.057E-22
  54696.317     8.234E-22
  54696.389     8.448E-22
  54696.461     8.740E-22
  54696.533     9.060E-22
  54696.605     9.331E-22
  54696.677     9.564E-22
  54696.749     9.788E-22
  54696.821     9.884E-22
  54696.893     1.002E-21
  54696.965     1.021E-21
  54697.037     1.036E-21
  54697.109     1.046E-21
  54697.181     1.056E-21
  54697.253     1.070E-21
  54697.325     1.088E-21
  54697.397     1.106E-21
  54697.469     1.131E-21
  54697.541     1.161E-21
  54697.613     1.180E-21
  54697.685     1.208E-21
  54697.757     1.238E-21
  54697.829     1.263E-21
  54697.901     1.289E-21
  54697.973     1.320E-21
  54698.045     1.366E-21
  54698.117     1.405E-21
  54698.189     1.464E-21
  54698.261     1.528E-21
  54698.332     1.596E-21
  54698.404     1.651E-21
  54698.476     1.704E-21
  54698.548     1.747E-21
  54699.767     2.989E-21
  54699.974     3.531E-21
  54700.061     3.647E-21
  54700.148     4.191E-21
  54700.235     4.542E-21
  54700.322     4.833E-21
  54700.408     5.551E-21
  54700.495     6.620E-21
  54700.582     7.985E-21
  54700.669     9.594E-21
  54700.756     1.107E-20
  54700.843     1.257E-20
  54700.930     1.480E-20
  54701.012     1.814E-20
  54701.099     2.257E-20
  54701.200     2.763E-20
  54701.287     3.264E-20
  54701.374     3.716E-20
  54701.461     4.111E-20
  54701.548     4.434E-20
  54701.635     4.615E-20
  54701.722     4.630E-20
  54701.809     4.525E-20
  54701.896     4.335E-20
  54701.983     4.150E-20
  54702.069     4.083E-20
  54702.156     4.112E-20
  54702.243     4.168E-20
  54702.330     4.204E-20
  54702.417     4.242E-20
  54702.504     4.299E-20
  54702.591     4.320E-20
  54702.678     4.232E-20
  54702.765     4.072E-20
  54702.852     3.942E-20
  54702.924     3.856E-20
  54703.026     3.769E-20
  54703.098     3.634E-20
  54703.185     3.457E-20
  54703.286     3.253E-20
  54703.359     2.989E-20
  54703.446     2.682E-20
  54703.533     2.404E-20
  54703.620     2.164E-20
  54703.707     1.934E-20
  54703.794     1.707E-20
  54703.880     1.511E-20
  54703.972     1.351E-20
  54704.059     1.223E-20
  54704.146     1.107E-20
  54704.233     9.866E-21
  54704.320     8.684E-21
  54704.407     7.658E-21
  54704.494     6.899E-21
  54704.580     6.480E-21
  54704.667     6.289E-21
  54704.754     5.973E-21
  54704.841     5.434E-21
  54704.928     5.041E-21
  54705.015     4.813E-21
  54705.102     4.396E-21
  54705.189     3.812E-21
  54705.276     3.180E-21
  54705.363     2.595E-21
  54705.450     2.295E-21
  54705.537     2.467E-21
  54705.623     2.972E-21
  54705.710     3.637E-21
  54705.797     4.226E-21
  54705.884     4.590E-21
  54705.971     4.512E-21
  54706.058     4.074E-21
  54706.145     3.685E-21
  54706.232     3.726E-21
  54706.319     4.395E-21
  54706.406     5.400E-21
  54706.493     6.036E-21
  54706.580     6.288E-21
  54706.667     6.414E-21
  54706.753     6.271E-21
  54706.840     5.898E-21
  54706.927     5.518E-21
  54707.014     4.989E-21
  54707.101     4.179E-21
  54707.188     3.757E-21
  54707.275     3.736E-21
  54707.362     3.520E-21
  54707.449     3.096E-21
  54707.536     2.762E-21
  54707.623     2.574E-21
  54707.710     2.352E-21
  54707.796     2.166E-21
  54707.883     2.137E-21
  54707.970     2.415E-21
  54708.057     2.747E-21
  54708.144     2.563E-21
  54708.231     1.964E-21
  54708.318     1.661E-21
  54708.405     2.018E-21
  54708.492     2.882E-21
  54708.579     4.110E-21
  54708.666     5.493E-21
  54708.753     6.544E-21
  54708.840     7.050E-21
  54708.926     7.197E-21
  54709.013     7.320E-21
  54709.100     7.336E-21
  54709.187     6.858E-21
  54709.274     6.046E-21
  54709.361     5.390E-21
  54709.448     5.121E-21
  54709.535     5.163E-21
  54709.622     5.135E-21
  54709.709     4.415E-21
  54709.792     3.460E-21
  54709.873     2.769E-21
  54709.982     2.282E-21
  54710.063     1.976E-21
  54710.141     1.705E-21
  54710.216     1.512E-21
  54710.288     1.374E-21
  54710.644     1.169E-21
  54710.716     1.154E-21
  54710.788     1.147E-21
  54710.860     1.147E-21
  54710.932     1.149E-21
  54711.004     1.153E-21
  54711.076     1.154E-21
  54711.148     1.163E-21
  54711.220     1.177E-21
  54711.292     1.182E-21
  54711.364     1.188E-21
  54711.436     1.192E-21
  54711.508     1.196E-21
  54711.580     1.200E-21
  54711.652     1.222E-21
  54711.724     1.244E-21
  54711.796     1.263E-21
  54711.868     1.293E-21
  54711.940     1.323E-21
  54712.012     1.337E-21
  54712.084     1.355E-21
  54712.156     1.380E-21
  54712.228     1.401E-21
  54712.300     1.418E-21
  54712.372     1.428E-21
  54712.444     1.427E-21
  54712.516     1.422E-21
  54712.588     1.433E-21
  54712.660     1.452E-21
  54712.732     1.458E-21
  54712.804     1.451E-21
  54712.876     1.456E-21
  54712.948     1.471E-21
  54713.020     1.489E-21
  54713.092     1.502E-21
  54713.164     1.526E-21
  54713.236     1.548E-21
  54713.308     1.568E-21
  54713.380     1.590E-21
  54713.453     1.610E-21
  54713.525     1.638E-21
  54714.670     2.760E-21
  54715.547     4.342E-21
  54715.793     4.706E-21
  54715.880     5.202E-21
  54715.967     5.789E-21
  54716.054     6.593E-21
  54716.141     7.117E-21
  54716.228     7.429E-21
  54716.315     7.785E-21
  54716.402     8.062E-21
  54716.489     8.344E-21
  54716.576     8.973E-21
  54716.663     1.012E-20
  54716.750     1.199E-20
  54716.832     1.460E-20
  54716.919     1.754E-20
  54717.006     2.037E-20
  54717.093     2.318E-20
  54717.180     2.685E-20
  54717.281     3.190E-20
  54717.368     3.782E-20
  54717.455     4.407E-20
  54717.542     5.041E-20
  54717.629     5.719E-20
  54717.716     6.479E-20
  54717.807     7.213E-20
  54717.894     7.694E-20
  54717.981     7.920E-20
  54718.068     7.995E-20
  54718.155     7.996E-20
  54718.242     8.034E-20
  54718.329     8.112E-20
  54718.416     8.141E-20
  54718.503     8.043E-20
  54718.590     7.910E-20
  54718.677     7.768E-20
  54718.764     7.604E-20
  54718.850     7.375E-20
  54718.937     7.139E-20
  54719.024     6.880E-20
  54719.111     6.461E-20
  54719.198     5.938E-20
  54719.285     5.469E-20
  54719.367     5.059E-20
  54719.454     4.643E-20
  54719.541     4.229E-20
  54719.628     3.820E-20
  54719.715     3.405E-20
  54719.802     3.008E-20
  54719.874     2.674E-20
  54719.976     2.401E-20
  54720.048     2.123E-20
  54720.135     1.873E-20
  54720.227     1.708E-20
  54720.314     1.577E-20
  54720.401     1.409E-20
  54720.487     1.228E-20
  54720.574     1.099E-20
  54720.661     1.022E-20
  54720.748     9.571E-21
  54720.835     8.863E-21
  54720.922     8.177E-21
  54721.009     7.593E-21
  54721.096     7.182E-21
  54721.183     6.872E-21
  54721.270     6.356E-21
  54721.357     5.634E-21
  54721.444     5.099E-21
  54721.531     4.844E-21
  54721.618     4.614E-21
  54721.704     4.312E-21
  54721.791     4.120E-21
  54721.878     4.278E-21
  54721.965     4.587E-21
  54722.052     4.655E-21
  54722.139     4.523E-21
  54722.226     4.462E-21
  54722.313     4.743E-21
  54722.400     5.447E-21
  54722.487     6.303E-21
  54722.574     6.762E-21
  54722.661     6.379E-21
  54722.748     5.688E-21
  54722.835     5.469E-21
  54722.921     5.431E-21
  54723.008     5.269E-21
  54723.095     4.987E-21
  54723.182     4.572E-21
  54723.269     4.146E-21
  54723.356     3.473E-21
  54723.443     2.447E-21
  54723.530     1.848E-21
  54723.617     1.842E-21
  54723.704     1.911E-21
  54723.791     2.017E-21
  54723.878     2.481E-21
  54723.965     3.145E-21
  54724.052     3.532E-21
  54724.139     4.033E-21
  54724.225     4.585E-21
  54724.312     4.741E-21
  54724.399     4.928E-21
  54724.486     5.462E-21
  54724.573     6.132E-21
  54724.660     6.389E-21
  54724.747     6.145E-21
  54724.834     5.742E-21
  54724.921     5.366E-21
  54725.008     4.997E-21
  54725.095     4.537E-21
  54725.182     4.017E-21
  54725.269     3.201E-21
  54725.351     2.493E-21
  54725.428     2.032E-21
  54725.543     1.637E-21
  54725.623     1.374E-21
  54725.699     1.187E-21
  54726.130     9.301E-22
  54726.202     9.240E-22
  54726.274     9.184E-22
  54726.346     9.088E-22
  54726.418     9.004E-22
  54726.490     8.863E-22
  54726.562     8.697E-22
  54726.634     8.497E-22
  54726.707     8.315E-22
  54726.779     8.176E-22
  54726.851     7.996E-22
  54726.923     7.814E-22
  54726.995     7.653E-22
  54727.067     7.482E-22
  54727.139     7.361E-22
  54727.211     7.306E-22
  54727.283     7.196E-22
  54727.355     7.115E-22
  54727.428     7.008E-22
  54727.500     6.918E-22
  54727.572     6.794E-22
  54727.644     6.696E-22
  54727.716     6.652E-22
  54727.788     6.611E-22
  54727.860     6.573E-22
  54727.932     6.487E-22
  54728.005     6.440E-22
  54728.077     6.320E-22
  54728.150     6.257E-22
  54728.222     6.192E-22
  54728.294     6.174E-22
  54728.366     6.143E-22
  54728.438     6.114E-22
  54728.510     6.046E-22
  54728.583     5.988E-22
  54728.655     6.008E-22
  54728.727     5.941E-22
  54728.799     5.851E-22
  54728.871     5.821E-22
  54728.943     5.793E-22
  54729.015     5.781E-22
  54729.087     5.748E-22
  54729.159     5.690E-22
  54729.232     5.620E-22
  54729.304     5.606E-22
  54729.376     5.611E-22
  54729.448     5.646E-22
  54729.521     5.639E-22
  54729.593     5.582E-22
  54729.665     5.501E-22
  54729.737     5.515E-22
  54729.810     5.498E-22
  54729.882     5.446E-22
  54729.954     5.441E-22
  54730.026     5.431E-22
  54730.098     5.414E-22
  54730.170     5.336E-22
  54730.242     5.313E-22
  54730.314     5.313E-22
  54730.387     5.322E-22
  54730.459     5.281E-22
  54730.531     5.256E-22
  54730.603     5.247E-22
  54730.675     5.237E-22
  54730.747     5.255E-22
  54730.820     5.216E-22
  54730.892     5.161E-22
  54730.965     5.160E-22
  54731.037     5.149E-22
  54731.109     5.163E-22
  54731.181     5.207E-22
  54731.253     5.228E-22
  54731.325     5.315E-22
  54731.397     5.363E-22
  54731.469     5.397E-22
  54731.541     5.443E-22
  54731.614     5.432E-22
  54731.686     5.461E-22
  54731.758     5.501E-22
  54731.830     5.593E-22
  54731.902     5.676E-22
  54731.974     5.678E-22
  54732.047     5.606E-22
  54732.119     5.542E-22
  54732.192     5.537E-22
  54732.264     5.507E-22
  54732.336     5.482E-22
  54732.408     5.480E-22
  54732.480     5.494E-22
  54732.552     5.540E-22
  54732.624     5.614E-22
  54732.696     5.703E-22
  54732.769     5.786E-22
  54732.841     5.800E-22
  54732.913     5.888E-22
  54732.985     5.975E-22
  54733.057     6.128E-22
  54733.129     6.284E-22
  54733.202     6.391E-22
  54733.274     6.528E-22
  54733.346     6.703E-22
  54733.418     6.874E-22
  54733.490     7.055E-22
  54733.562     7.208E-22
  54733.634     7.350E-22
  54733.706     7.626E-22
  54733.778     7.920E-22
  54733.850     8.237E-22
  54733.922     8.591E-22
  54733.994     8.977E-22
  54734.066     9.407E-22
  54734.210     1.068E-21
  54734.286     1.254E-21
  54734.418     1.649E-21
  54734.493     1.962E-21
  54734.571     2.155E-21
  54734.654     2.538E-21
  54734.835     3.478E-21
  54734.918     4.392E-21
  54735.005     4.608E-21
  54735.092     4.363E-21
  54735.179     3.916E-21
  54735.266     3.368E-21
  54735.353     3.082E-21
  54735.440     3.275E-21
  54735.527     3.378E-21
  54735.614     2.983E-21
  54735.701     2.640E-21
  54735.788     2.542E-21
  54735.875     2.514E-21
  54735.962     2.686E-21
  54736.049     3.128E-21
  54736.135     3.496E-21
  54736.222     3.553E-21
  54736.309     3.427E-21
  54736.396     3.441E-21
  54736.483     3.828E-21
  54736.570     4.888E-21
  54736.657     6.294E-21
  54736.744     7.183E-21
  54736.831     7.160E-21
  54736.918     6.786E-21
  54737.005     6.634E-21
  54737.092     6.383E-21
  54737.179     5.686E-21
  54737.266     5.052E-21
  54737.353     4.946E-21
  54737.440     4.883E-21
  54737.526     4.530E-21
  54737.613     3.849E-21
  54737.700     3.159E-21
  54737.787     2.956E-21
  54737.874     3.078E-21
  54737.961     3.014E-21
  54738.048     2.828E-21
  54738.135     2.862E-21
  54738.222     3.016E-21
  54738.309     3.145E-21
  54738.396     3.158E-21
  54738.483     3.214E-21
  54738.570     3.690E-21
  54738.657     4.613E-21
  54738.744     5.344E-21
  54738.831     5.680E-21
  54738.918     5.958E-21
  54739.004     6.333E-21
  54739.091     6.622E-21
  54739.178     6.626E-21
  54739.265     6.440E-21
  54739.352     6.421E-21
  54739.439     6.173E-21
  54739.526     5.400E-21
  54739.613     4.638E-21
  54739.700     4.240E-21
  54739.787     3.995E-21
  54739.874     3.773E-21
  54739.961     3.476E-21
  54740.048     3.041E-21
  54740.133     2.726E-21
  54740.215     2.534E-21
  54740.318     2.167E-21
  54740.402     1.769E-21
  54740.481     1.439E-21
  54740.558     1.275E-21
  54740.632     1.129E-21
  54740.766     9.198E-22
  54740.841     8.502E-22
  54740.913     8.210E-22
  54740.985     7.996E-22
  54741.057     7.797E-22
  54741.129     7.632E-22
  54741.202     7.456E-22
  54741.274     7.296E-22
  54741.346     7.198E-22
  54741.418     7.074E-22
  54741.490     7.000E-22
  54741.562     6.896E-22
  54741.634     6.900E-22
  54741.706     6.884E-22
  54741.778     6.850E-22
  54741.850     6.832E-22
  54741.922     6.696E-22
  54741.994     6.671E-22
  54742.067     6.724E-22
  54742.139     6.743E-22
  54742.211     6.863E-22
  54742.283     6.929E-22
  54742.355     6.900E-22
  54742.427     6.810E-22
  54742.499     6.667E-22
  54742.571     6.509E-22
  54742.643     6.301E-22
  54742.715     6.134E-22
  54742.787     5.921E-22
  54742.859     5.766E-22
  54742.932     5.659E-22
  54743.004     5.541E-22
  54743.076     5.415E-22
  54743.148     5.333E-22
  54743.220     5.408E-22
  54743.292     5.443E-22
  54743.364     5.505E-22
  54743.436     5.648E-22
  54743.508     5.818E-22
  54743.580     6.000E-22
  54743.652     6.245E-22
  54743.724     6.669E-22
  54743.797     7.352E-22
  54743.869     8.323E-22
  54743.941     9.433E-22
  54744.013     1.080E-21
  54744.085     1.216E-21
  54744.157     1.358E-21
  54744.229     1.466E-21
  54744.301     1.537E-21
  54744.373     1.515E-21
  54744.445     1.430E-21
  54744.517     1.324E-21
  54744.590     1.209E-21
  54744.662     1.103E-21
  54744.734     1.022E-21
  54744.806     9.580E-22
  54744.878     9.106E-22
  54744.950     8.935E-22
  54745.022     8.952E-22
  54745.094     9.253E-22
  54745.166     9.812E-22
  54745.238     1.065E-21
  54745.310     1.167E-21
  54745.383     1.267E-21
  54745.455     1.373E-21
  54745.527     1.452E-21
  54745.599     1.497E-21
  54745.671     1.488E-21
  54745.743     1.391E-21
  54745.815     1.271E-21
  54745.887     1.144E-21
  54745.959     1.026E-21
  54746.031     9.311E-22
  54746.103     8.500E-22
  54746.176     7.788E-22
  54746.248     7.278E-22
  54746.320     6.939E-22
  54746.392     6.757E-22
  54746.464     6.711E-22
  54746.536     6.846E-22
  54746.608     7.145E-22
  54746.680     7.627E-22
  54746.752     8.275E-22
  54746.824     8.963E-22
  54746.896     9.495E-22
  54746.969     9.780E-22
  54747.041     9.798E-22
  54747.113     9.533E-22
  54747.185     9.042E-22
  54747.257     8.517E-22
  54747.329     7.896E-22
  54747.401     7.307E-22
  54747.473     6.829E-22
  54747.545     6.455E-22
  54747.617     6.117E-22
  54747.690     5.918E-22
  54747.762     5.760E-22
  54747.834     5.687E-22
  54747.906     5.715E-22
  54747.978     5.673E-22
  54748.050     5.718E-22
  54748.122     5.829E-22
  54748.194     5.966E-22
  54748.338     6.415E-22
  54748.408     7.978E-22
  54748.482     1.098E-21
  54748.561     1.408E-21
  54748.643     1.655E-21
  54748.750     2.112E-21
  54748.831     2.793E-21
  54748.916     3.464E-21
  54749.003     3.468E-21
  54749.090     3.265E-21
  54749.177     3.152E-21
  54749.264     3.211E-21
  54749.351     3.279E-21
  54749.438     2.980E-21
  54749.525     2.371E-21
  54749.612     2.124E-21
  54749.699     2.310E-21
  54749.785     2.098E-21
  54749.872     1.470E-21
  54750.046     1.282E-21
  54750.133     1.557E-21
  54750.220     1.733E-21
  54750.307     1.801E-21
  54750.394     1.896E-21
  54750.481     2.225E-21
  54750.568     2.929E-21
  54750.655     3.827E-21
  54750.742     4.477E-21
  54750.829     4.736E-21
  54750.916     4.705E-21
  54751.003     4.436E-21
  54751.090     4.047E-21
  54751.177     3.789E-21
  54751.264     3.665E-21
  54751.353     3.279E-21
  54751.437     2.948E-21
  54751.520     2.513E-21
  54751.599     1.899E-21
  54751.714     1.382E-21
  54751.794     1.201E-21
  54751.871     1.084E-21
  54751.945     9.250E-22
  54752.016     7.935E-22
  54752.088     7.852E-22
  54752.160     7.697E-22
  54752.232     7.655E-22
  54752.304     7.695E-22
  54752.376     7.799E-22
  54752.448     8.057E-22
  54752.520     8.322E-22
  54752.592     8.691E-22
  54752.665     9.108E-22
  54752.737     9.471E-22
  54752.809     9.957E-22
  54752.881     1.037E-21
  54752.953     1.075E-21
  54753.025     1.113E-21
  54753.097     1.142E-21
