#  O2 xsec;CfA;O2WB7X0;300 K;53250-53746 cm-1;6334 pts         
#    WNO      SIGMA
  53250.028     8.939E-23
  53250.096     8.994E-23
  53250.164     9.024E-23
  53250.232     9.016E-23
  53250.300     8.989E-23
  53250.368     8.963E-23
  53250.437     8.959E-23
  53250.505     8.985E-23
  53250.573     9.022E-23
  53250.641     9.068E-23
  53250.709     9.095E-23
  53250.778     9.093E-23
  53250.846     9.087E-23
  53250.914     9.084E-23
  53250.982     9.097E-23
  53251.050     9.100E-23
  53251.118     9.120E-23
  53251.187     9.147E-23
  53251.255     9.168E-23
  53251.323     9.171E-23
  53251.391     9.152E-23
  53251.459     9.123E-23
  53251.527     9.088E-23
  53251.596     9.041E-23
  53251.664     8.992E-23
  53251.732     8.953E-23
  53251.800     8.939E-23
  53251.868     8.974E-23
  53251.936     8.997E-23
  53252.005     8.989E-23
  53252.073     8.948E-23
  53252.141     8.906E-23
  53252.209     8.868E-23
  53252.277     8.836E-23
  53252.346     8.815E-23
  53252.414     8.792E-23
  53252.482     8.762E-23
  53252.550     8.725E-23
  53252.618     8.714E-23
  53252.686     8.752E-23
  53252.755     8.796E-23
  53252.823     8.834E-23
  53252.891     8.870E-23
  53252.959     8.879E-23
  53253.027     8.899E-23
  53253.095     8.923E-23
  53253.164     8.937E-23
  53253.232     8.980E-23
  53253.300     9.035E-23
  53253.368     9.082E-23
  53253.436     9.102E-23
  53253.504     9.119E-23
  53253.573     9.146E-23
  53253.641     9.186E-23
  53253.709     9.224E-23
  53253.777     9.256E-23
  53253.845     9.270E-23
  53253.914     9.283E-23
  53253.982     9.334E-23
  53254.050     9.418E-23
  53254.118     9.524E-23
  53254.186     9.654E-23
  53254.254     9.789E-23
  53254.323     9.929E-23
  53254.391     1.010E-22
  53254.459     1.030E-22
  53254.527     1.047E-22
  53254.595     1.062E-22
  53254.663     1.077E-22
  53254.732     1.092E-22
  53254.800     1.111E-22
  53254.868     1.133E-22
  53254.936     1.159E-22
  53255.004     1.186E-22
  53255.072     1.210E-22
  53255.141     1.232E-22
  53255.209     1.259E-22
  53255.277     1.291E-22
  53255.345     1.323E-22
  53255.413     1.358E-22
  53255.481     1.391E-22
  53255.550     1.425E-22
  53255.618     1.470E-22
  53255.686     1.518E-22
  53255.754     1.567E-22
  53255.822     1.619E-22
  53255.891     1.672E-22
  53255.959     1.723E-22
  53256.027     1.770E-22
  53256.095     1.817E-22
  53256.163     1.861E-22
  53256.231     1.905E-22
  53256.300     1.953E-22
  53256.368     1.996E-22
  53256.436     2.028E-22
  53256.504     2.046E-22
  53256.572     2.057E-22
  53256.640     2.073E-22
  53256.709     2.090E-22
  53256.777     2.107E-22
  53256.845     2.122E-22
  53256.913     2.132E-22
  53256.981     2.132E-22
  53257.049     2.128E-22
  53257.118     2.127E-22
  53257.186     2.123E-22
  53257.254     2.119E-22
  53257.322     2.109E-22
  53257.390     2.098E-22
  53257.459     2.084E-22
  53257.527     2.067E-22
  53257.595     2.050E-22
  53257.663     2.027E-22
  53257.731     1.996E-22
  53257.799     1.957E-22
  53257.868     1.917E-22
  53257.936     1.891E-22
  53258.004     1.871E-22
  53258.072     1.846E-22
  53258.140     1.817E-22
  53258.208     1.780E-22
  53258.277     1.744E-22
  53258.345     1.710E-22
  53258.413     1.678E-22
  53258.481     1.649E-22
  53258.549     1.618E-22
  53258.617     1.584E-22
  53258.686     1.545E-22
  53258.754     1.508E-22
  53258.822     1.475E-22
  53258.890     1.447E-22
  53258.958     1.425E-22
  53259.026     1.405E-22
  53259.095     1.380E-22
  53259.163     1.349E-22
  53259.231     1.317E-22
  53259.299     1.289E-22
  53259.367     1.266E-22
  53259.436     1.251E-22
  53259.504     1.240E-22
  53259.572     1.229E-22
  53259.640     1.217E-22
  53259.708     1.203E-22
  53259.776     1.185E-22
  53259.845     1.170E-22
  53259.913     1.153E-22
  53259.981     1.134E-22
  53260.049     1.123E-22
  53260.117     1.117E-22
  53260.185     1.107E-22
  53260.254     1.097E-22
  53260.322     1.087E-22
  53260.390     1.078E-22
  53260.458     1.070E-22
  53260.526     1.059E-22
  53260.594     1.046E-22
  53260.663     1.031E-22
  53260.731     1.019E-22
  53260.799     1.010E-22
  53260.867     1.002E-22
  53260.935     1.001E-22
  53261.003     1.002E-22
  53261.072     1.003E-22
  53261.140     1.002E-22
  53261.208     9.973E-23
  53261.276     9.867E-23
  53261.344     9.722E-23
  53261.413     9.625E-23
  53261.481     9.594E-23
  53261.549     9.600E-23
  53261.617     9.663E-23
  53261.685     9.736E-23
  53261.753     9.784E-23
  53261.822     9.784E-23
  53261.890     9.774E-23
  53261.958     9.779E-23
  53262.026     9.779E-23
  53262.094     9.783E-23
  53262.162     9.781E-23
  53262.231     9.738E-23
  53262.299     9.645E-23
  53262.367     9.523E-23
  53262.435     9.378E-23
  53262.503     9.292E-23
  53262.571     9.237E-23
  53262.640     9.237E-23
  53262.708     9.317E-23
  53262.776     9.401E-23
  53262.844     9.448E-23
  53262.912     9.456E-23
  53262.980     9.469E-23
  53263.049     9.493E-23
  53263.117     9.547E-23
  53263.185     9.566E-23
  53263.253     9.557E-23
  53263.321     9.538E-23
  53263.390     9.488E-23
  53263.458     9.485E-23
  53263.526     9.517E-23
  53263.594     9.545E-23
  53263.662     9.598E-23
  53263.730     9.675E-23
  53263.799     9.759E-23
  53263.867     9.862E-23
  53263.935     9.968E-23
  53264.003     1.003E-22
  53264.071     1.002E-22
  53264.139     9.997E-23
  53264.208     9.960E-23
  53264.276     9.934E-23
  53264.344     9.926E-23
  53264.412     9.941E-23
  53264.480     9.938E-23
  53264.548     9.922E-23
  53264.617     9.908E-23
  53264.685     9.896E-23
  53264.753     9.872E-23
  53264.821     9.858E-23
  53264.889     9.879E-23
  53264.957     9.916E-23
  53265.026     9.931E-23
  53265.094     9.937E-23
  53265.162     9.934E-23
  53265.230     9.913E-23
  53265.298     9.927E-23
  53265.367     9.949E-23
  53265.435     9.960E-23
  53265.503     9.979E-23
  53265.571     1.002E-22
  53265.639     1.007E-22
  53265.707     1.016E-22
  53265.776     1.025E-22
  53265.844     1.029E-22
  53265.912     1.031E-22
  53265.980     1.032E-22
  53266.048     1.034E-22
  53266.116     1.038E-22
  53266.185     1.046E-22
  53266.253     1.055E-22
  53266.321     1.063E-22
  53266.389     1.068E-22
  53266.457     1.072E-22
  53266.525     1.075E-22
  53266.594     1.074E-22
  53266.662     1.074E-22
  53266.730     1.080E-22
  53266.798     1.089E-22
  53266.866     1.096E-22
  53266.934     1.099E-22
  53267.003     1.100E-22
  53267.071     1.099E-22
  53267.139     1.102E-22
  53267.207     1.109E-22
  53267.275     1.118E-22
  53267.344     1.126E-22
  53267.412     1.131E-22
  53267.480     1.137E-22
  53267.548     1.140E-22
  53267.616     1.140E-22
  53267.684     1.142E-22
  53267.753     1.146E-22
  53267.821     1.149E-22
  53267.889     1.152E-22
  53267.957     1.158E-22
  53268.025     1.168E-22
  53268.093     1.177E-22
  53268.162     1.184E-22
  53268.230     1.187E-22
  53268.298     1.192E-22
  53268.366     1.202E-22
  53268.434     1.217E-22
  53268.502     1.232E-22
  53268.571     1.247E-22
  53268.639     1.255E-22
  53268.707     1.256E-22
  53268.775     1.255E-22
  53268.843     1.259E-22
  53268.911     1.260E-22
  53268.980     1.262E-22
  53269.048     1.272E-22
  53269.116     1.282E-22
  53269.184     1.295E-22
  53269.252     1.310E-22
  53269.320     1.323E-22
  53269.389     1.336E-22
  53269.457     1.348E-22
  53269.525     1.362E-22
  53269.593     1.378E-22
  53269.661     1.390E-22
  53269.730     1.404E-22
  53269.798     1.417E-22
  53269.866     1.424E-22
  53269.934     1.424E-22
  53270.002     1.424E-22
  53270.070     1.429E-22
  53270.139     1.437E-22
  53270.207     1.453E-22
  53270.275     1.478E-22
  53270.343     1.511E-22
  53270.411     1.544E-22
  53270.479     1.577E-22
  53270.548     1.609E-22
  53270.616     1.635E-22
  53270.684     1.657E-22
  53270.752     1.676E-22
  53270.820     1.696E-22
  53270.888     1.723E-22
  53270.957     1.755E-22
  53271.025     1.790E-22
  53271.093     1.825E-22
  53271.161     1.866E-22
  53271.229     1.912E-22
  53271.297     1.958E-22
  53271.366     2.003E-22
  53271.434     2.044E-22
  53271.502     2.092E-22
  53271.570     2.154E-22
  53271.638     2.230E-22
  53271.706     2.326E-22
  53271.775     2.442E-22
  53271.843     2.579E-22
  53271.911     2.735E-22
  53271.979     2.903E-22
  53272.047     3.088E-22
  53272.116     3.292E-22
  53272.184     3.515E-22
  53272.252     3.763E-22
  53272.320     4.017E-22
  53272.388     4.271E-22
  53272.456     4.535E-22
  53272.525     4.815E-22
  53272.593     5.109E-22
  53272.661     5.411E-22
  53272.729     5.691E-22
  53272.797     5.939E-22
  53272.865     6.168E-22
  53272.934     6.361E-22
  53273.002     6.521E-22
  53273.070     6.670E-22
  53273.138     6.812E-22
  53273.206     6.951E-22
  53273.274     7.064E-22
  53273.343     7.185E-22
  53273.411     7.308E-22
  53273.479     7.394E-22
  53273.547     7.445E-22
  53273.615     7.480E-22
  53273.683     7.488E-22
  53273.752     7.490E-22
  53273.820     7.457E-22
  53273.888     7.382E-22
  53273.956     7.264E-22
  53274.024     7.100E-22
  53274.092     6.901E-22
  53274.161     6.669E-22
  53274.229     6.445E-22
  53274.297     6.245E-22
  53274.365     6.056E-22
  53274.433     5.863E-22
  53274.502     5.659E-22
  53274.570     5.455E-22
  53274.638     5.233E-22
  53274.706     4.996E-22
  53274.774     4.775E-22
  53274.842     4.595E-22
  53274.911     4.448E-22
  53274.979     4.319E-22
  53275.047     4.203E-22
  53275.115     4.094E-22
  53275.183     4.004E-22
  53275.251     3.925E-22
  53275.320     3.840E-22
  53275.388     3.744E-22
  53275.456     3.653E-22
  53275.524     3.583E-22
  53275.592     3.535E-22
  53275.660     3.497E-22
  53275.729     3.466E-22
  53275.797     3.434E-22
  53275.865     3.406E-22
  53275.933     3.387E-22
  53276.001     3.379E-22
  53276.069     3.389E-22
  53276.138     3.403E-22
  53276.206     3.410E-22
  53276.274     3.428E-22
  53276.342     3.444E-22
  53276.410     3.444E-22
  53276.478     3.436E-22
  53276.547     3.422E-22
  53276.615     3.410E-22
  53276.683     3.423E-22
  53276.751     3.445E-22
  53276.819     3.470E-22
  53276.887     3.501E-22
  53276.956     3.549E-22
  53277.024     3.616E-22
  53277.092     3.682E-22
  53277.160     3.724E-22
  53277.228     3.767E-22
  53277.297     3.824E-22
  53277.365     3.889E-22
  53277.433     3.951E-22
  53277.501     4.013E-22
  53277.569     4.063E-22
  53277.637     4.113E-22
  53277.706     4.178E-22
  53277.775     4.263E-22
  53277.844     4.349E-22
  53277.914     4.429E-22
  53277.983     4.538E-22
  53278.052     4.662E-22
  53278.122     4.774E-22
  53278.191     4.906E-22
  53278.260     5.056E-22
  53278.329     5.208E-22
  53278.398     5.348E-22
  53278.468     5.490E-22
  53278.537     5.643E-22
  53278.606     5.834E-22
  53278.675     6.071E-22
  53278.744     6.318E-22
  53278.813     6.518E-22
  53278.883     6.743E-22
  53278.952     6.994E-22
  53279.022     7.265E-22
  53279.091     7.586E-22
  53279.160     7.871E-22
  53279.229     8.249E-22
  53279.297     8.567E-22
  53279.365     8.956E-22
  53279.433     9.415E-22
  53279.501     1.001E-21
  53279.569     1.057E-21
  53279.637     1.094E-21
  53279.705     1.133E-21
  53279.773     1.194E-21
  53279.841     1.257E-21
  53279.909     1.339E-21
  53279.977     1.396E-21
  53280.045     1.471E-21
  53280.113     1.583E-21
  53280.181     1.696E-21
  53280.249     1.803E-21
  53280.317     1.941E-21
  53280.385     2.098E-21
  53280.453     2.268E-21
  53280.521     2.434E-21
  53280.589     2.591E-21
  53280.657     2.769E-21
  53280.725     3.024E-21
  53280.793     3.327E-21
  53280.861     3.653E-21
  53280.929     4.079E-21
  53280.997     4.374E-21
  53281.065     4.735E-21
  53281.133     5.079E-21
  53281.201     5.342E-21
  53281.269     5.622E-21
  53281.338     5.888E-21
  53281.406     6.035E-21
  53281.474     6.014E-21
  53281.542     5.994E-21
  53281.610     5.812E-21
  53281.678     5.677E-21
  53281.746     5.519E-21
  53281.814     5.477E-21
  53281.882     5.425E-21
  53281.950     5.280E-21
  53282.018     5.097E-21
  53282.086     4.943E-21
  53282.154     4.764E-21
  53282.222     4.672E-21
  53282.290     4.613E-21
  53282.358     4.452E-21
  53282.426     4.442E-21
  53282.494     4.382E-21
  53282.562     4.124E-21
  53282.630     3.970E-21
  53282.698     3.854E-21
  53282.766     3.768E-21
  53282.834     3.726E-21
  53282.902     3.644E-21
  53282.970     3.539E-21
  53283.038     3.430E-21
  53283.106     3.341E-21
  53283.174     3.248E-21
  53283.242     3.186E-21
  53283.310     3.101E-21
  53283.379     3.050E-21
  53283.447     2.983E-21
  53283.518     2.971E-21
  53283.648     2.959E-21
  53283.718     3.004E-21
  53283.843     3.154E-21
  53283.903     3.250E-21
  53283.975     3.419E-21
  53284.050     3.658E-21
  53284.127     3.919E-21
  53284.207     4.201E-21
  53284.289     4.499E-21
  53284.375     4.775E-21
  53284.457     4.956E-21
  53284.540     5.208E-21
  53284.622     5.510E-21
  53284.709     5.872E-21
  53284.787     6.279E-21
  53284.874     6.744E-21
  53284.956     7.300E-21
  53285.039     7.914E-21
  53285.121     8.532E-21
  53285.204     9.127E-21
  53285.286     9.680E-21
  53285.358     1.023E-20
  53285.440     1.092E-20
  53285.523     1.165E-20
  53285.605     1.208E-20
  53285.688     1.191E-20
  53285.770     1.139E-20
  53285.853     1.090E-20
  53285.935     1.066E-20
  53286.017     1.065E-20
  53286.100     1.061E-20
  53286.182     1.022E-20
  53286.265     9.617E-21
  53286.358     9.084E-21
  53286.440     8.640E-21
  53286.523     8.197E-21
  53286.605     7.762E-21
  53286.688     7.412E-21
  53286.765     7.125E-21
  53286.852     6.831E-21
  53286.930     6.438E-21
  53287.013     5.983E-21
  53287.095     5.606E-21
  53287.178     5.345E-21
  53287.260     5.135E-21
  53287.342     4.860E-21
  53287.425     4.512E-21
  53287.510     4.131E-21
  53287.592     3.818E-21
  53287.669     3.499E-21
  53287.791     3.140E-21
  53287.867     2.924E-21
  53287.939     2.762E-21
  53288.142     2.366E-21
  53288.346     2.034E-21
  53288.414     1.963E-21
  53288.482     1.878E-21
  53288.550     1.788E-21
  53288.618     1.696E-21
  53288.686     1.628E-21
  53288.754     1.560E-21
  53288.822     1.497E-21
  53288.890     1.431E-21
  53288.958     1.394E-21
  53289.026     1.335E-21
  53289.094     1.295E-21
  53289.162     1.257E-21
  53289.230     1.199E-21
  53289.298     1.154E-21
  53289.366     1.113E-21
  53289.434     1.086E-21
  53289.502     1.031E-21
  53289.571     1.001E-21
  53289.639     9.576E-22
  53289.707     9.190E-22
  53289.775     8.884E-22
  53289.843     8.515E-22
  53289.911     8.293E-22
  53289.979     8.119E-22
  53290.047     7.844E-22
  53290.115     7.644E-22
  53290.183     7.484E-22
  53290.251     7.339E-22
  53290.319     7.187E-22
  53290.387     7.025E-22
  53290.455     6.793E-22
  53290.523     6.519E-22
  53290.591     6.356E-22
  53290.659     6.244E-22
  53290.727     6.025E-22
  53290.795     5.932E-22
  53290.863     5.829E-22
  53290.932     5.688E-22
  53291.000     5.517E-22
  53291.068     5.372E-22
  53291.136     5.201E-22
  53291.203     5.065E-22
  53291.271     4.941E-22
  53291.340     4.853E-22
  53291.408     4.765E-22
  53291.476     4.660E-22
  53291.544     4.578E-22
  53291.612     4.479E-22
  53291.680     4.369E-22
  53291.749     4.270E-22
  53291.817     4.143E-22
  53291.885     4.030E-22
  53291.953     3.950E-22
  53292.021     3.887E-22
  53292.089     3.837E-22
  53292.158     3.776E-22
  53292.226     3.700E-22
  53292.294     3.627E-22
  53292.362     3.563E-22
  53292.430     3.512E-22
  53292.498     3.463E-22
  53292.567     3.411E-22
  53292.635     3.350E-22
  53292.703     3.283E-22
  53292.771     3.213E-22
  53292.839     3.141E-22
  53292.907     3.075E-22
  53292.976     3.009E-22
  53293.044     2.956E-22
  53293.112     2.906E-22
  53293.180     2.849E-22
  53293.248     2.798E-22
  53293.316     2.757E-22
  53293.385     2.721E-22
  53293.453     2.686E-22
  53293.521     2.654E-22
  53293.589     2.626E-22
  53293.657     2.600E-22
  53293.725     2.567E-22
  53293.794     2.524E-22
  53293.862     2.472E-22
  53293.930     2.424E-22
  53293.998     2.390E-22
  53294.066     2.372E-22
  53294.134     2.354E-22
  53294.203     2.328E-22
  53294.271     2.291E-22
  53294.339     2.251E-22
  53294.407     2.226E-22
  53294.475     2.210E-22
  53294.544     2.210E-22
  53294.612     2.207E-22
  53294.680     2.186E-22
  53294.748     2.153E-22
  53294.816     2.115E-22
  53294.884     2.079E-22
  53294.953     2.047E-22
  53295.021     2.018E-22
  53295.089     1.992E-22
  53295.157     1.975E-22
  53295.225     1.960E-22
  53295.293     1.944E-22
  53295.362     1.923E-22
  53295.430     1.899E-22
  53295.498     1.874E-22
  53295.566     1.853E-22
  53295.634     1.837E-22
  53295.702     1.831E-22
  53295.771     1.825E-22
  53295.839     1.818E-22
  53295.907     1.807E-22
  53295.975     1.795E-22
  53296.043     1.780E-22
  53296.111     1.764E-22
  53296.180     1.754E-22
  53296.248     1.750E-22
  53296.316     1.741E-22
  53296.384     1.718E-22
  53296.452     1.688E-22
  53296.520     1.666E-22
  53296.589     1.652E-22
  53296.657     1.646E-22
  53296.725     1.644E-22
  53296.793     1.633E-22
  53296.861     1.612E-22
  53296.929     1.585E-22
  53296.998     1.563E-22
  53297.066     1.548E-22
  53297.134     1.535E-22
  53297.202     1.521E-22
  53297.270     1.509E-22
  53297.338     1.496E-22
  53297.407     1.481E-22
  53297.475     1.469E-22
  53297.543     1.460E-22
  53297.611     1.454E-22
  53297.679     1.450E-22
  53297.747     1.446E-22
  53297.816     1.437E-22
  53297.884     1.428E-22
  53297.952     1.426E-22
  53298.020     1.424E-22
  53298.088     1.420E-22
  53298.156     1.418E-22
  53298.225     1.420E-22
  53298.293     1.421E-22
  53298.361     1.414E-22
  53298.429     1.403E-22
  53298.497     1.384E-22
  53298.565     1.366E-22
  53298.634     1.351E-22
  53298.702     1.336E-22
  53298.770     1.329E-22
  53298.838     1.322E-22
  53298.906     1.314E-22
  53298.974     1.309E-22
  53299.043     1.302E-22
  53299.111     1.300E-22
  53299.179     1.299E-22
  53299.247     1.297E-22
  53299.315     1.292E-22
  53299.383     1.280E-22
  53299.452     1.269E-22
  53299.520     1.261E-22
  53299.588     1.253E-22
  53299.656     1.248E-22
  53299.724     1.244E-22
  53299.792     1.243E-22
  53299.861     1.239E-22
  53299.929     1.235E-22
  53299.997     1.235E-22
  53300.065     1.236E-22
  53300.133     1.239E-22
  53300.202     1.243E-22
  53300.270     1.243E-22
  53300.338     1.237E-22
  53300.406     1.228E-22
  53300.474     1.222E-22
  53300.542     1.217E-22
  53300.611     1.214E-22
  53300.679     1.207E-22
  53300.747     1.196E-22
  53300.815     1.188E-22
  53300.883     1.181E-22
  53300.951     1.176E-22
  53301.020     1.173E-22
  53301.088     1.172E-22
  53301.156     1.173E-22
  53301.224     1.169E-22
  53301.292     1.160E-22
  53301.361     1.151E-22
  53301.430     1.143E-22
  53301.498     1.137E-22
  53301.566     1.133E-22
  53301.634     1.125E-22
  53301.702     1.118E-22
  53301.770     1.114E-22
  53301.839     1.110E-22
  53301.907     1.109E-22
  53301.975     1.109E-22
  53302.044     1.108E-22
  53302.112     1.106E-22
  53302.180     1.104E-22
  53302.249     1.101E-22
  53302.317     1.096E-22
  53302.385     1.092E-22
  53302.453     1.089E-22
  53302.521     1.086E-22
  53302.589     1.082E-22
  53302.658     1.078E-22
  53302.727     1.076E-22
  53302.795     1.072E-22
  53302.863     1.068E-22
  53302.931     1.065E-22
  53302.999     1.067E-22
  53303.068     1.070E-22
  53303.136     1.071E-22
  53303.204     1.075E-22
  53303.272     1.080E-22
