 16O18O;(10,0);79K;54725-980 cm-1;3642 pts
     WNO          SIG
  54725.047    9.9756E-22
  54725.109    1.2863E-21
  54725.184    1.2885E-21
  54725.250    4.7312E-22
  54725.324   -4.2740E-22
  54725.391   -5.2820E-22
  54725.457   -9.4940E-22
  54725.531   -1.5697E-21
  54725.598   -1.1709E-21
  54725.672   -4.6504E-22
  54725.738    9.9876E-22
  54725.809    1.9300E-21
  54725.875    1.9788E-21
  54725.953    1.0572E-21
  54726.016    2.8545E-22
  54726.090    2.7918E-22
  54726.156    1.0335E-21
  54726.230    1.2439E-21
  54726.297    6.5318E-22
  54726.363    9.8388E-22
  54726.438    1.7982E-21
  54726.504    2.0885E-21
  54726.578    1.1144E-21
  54726.645    2.9833E-22
  54726.715   -6.0594E-22
  54726.781   -1.8242E-21
  54726.859   -1.7337E-21
  54726.926   -9.3549E-22
  54726.996   -6.6126E-22
  54727.063   -4.3856E-22
  54727.137    1.3072E-22
  54727.203    4.1006E-22
  54727.277    2.2299E-22
  54727.344    1.1948E-21
  54727.418    2.9591E-21
  54727.484    3.9236E-21
  54727.551    4.1115E-21
  54727.621    3.0805E-21
  54727.691    1.2769E-21
  54727.766    4.4969E-22
  54727.832    6.2584E-22
  54727.902    1.3026E-21
  54727.969    1.4826E-21
  54728.047    1.0780E-21
  54728.109    9.3607E-22
  54728.184    5.5887E-22
  54728.250   -1.6151E-22
  54728.324    7.2770E-23
  54728.391   -1.7562E-22
  54728.457   -6.3204E-22
  54728.531   -4.3188E-22
  54728.598   -2.2486E-22
  54728.672   -3.9150E-22
  54728.738   -3.8386E-22
  54728.809   -4.6577E-22
  54728.875   -5.8562E-23
  54728.953    2.4959E-22
  54729.016   -6.3475E-22
  54729.090   -8.8103E-22
  54729.156   -1.1910E-21
  54729.230   -9.0481E-22
  54729.297   -3.3241E-22
  54729.363    1.2272E-21
  54729.438    2.5988E-21
  54729.504    3.3953E-21
  54729.578    3.0819E-21
  54729.645    2.6353E-21
  54729.715    1.9101E-21
  54729.781    9.0029E-22
  54729.859    1.0369E-21
  54729.926    2.0098E-21
  54729.996    2.5653E-21
  54730.063    2.6481E-21
  54730.137    2.8345E-21
  54730.203    2.8580E-21
  54730.277    1.9478E-21
  54730.344    1.1474E-21
  54730.418    6.4794E-23
  54730.484    2.0005E-22
  54730.551    1.0680E-21
  54730.621    1.2447E-21
  54730.691    2.1695E-21
  54730.766    2.7414E-21
  54730.832    1.9264E-21
  54730.902    9.9538E-22
  54730.969    7.9690E-23
  54731.047   -6.1453E-22
  54731.109   -1.8222E-21
  54731.184   -1.4648E-21
  54731.250   -6.3906E-22
  54731.324   -4.6756E-22
  54731.391   -2.1192E-22
  54731.457    1.5554E-22
  54731.531    1.0567E-22
  54731.598   -6.0652E-22
  54731.672   -9.0048E-22
  54731.738   -5.0225E-22
  54731.809   -3.8908E-22
  54731.875    3.2319E-22
  54731.953    7.8807E-22
  54732.016    1.4383E-21
  54732.090    1.8724E-21
  54732.156    2.2672E-21
  54732.230    2.4447E-21
  54732.297    3.0004E-21
  54732.363    3.1470E-21
  54732.438    3.3609E-21
  54732.504    2.8788E-21
  54732.578    1.5909E-21
  54732.645    1.4734E-22
  54732.715   -5.8455E-22
  54732.781   -7.9567E-22
  54732.859   -4.8805E-22
  54732.926    3.0126E-22
  54732.996    2.9821E-22
  54733.063   -3.0089E-22
  54733.137    4.0894E-22
  54733.203    1.3433E-21
  54733.277    2.5301E-21
  54733.344    3.0894E-21
  54733.418    2.8356E-21
  54733.484    2.3270E-21
  54733.551    1.2401E-21
  54733.625   -3.8058E-22
  54733.691   -8.2484E-22
  54733.766   -4.6792E-22
  54733.832    4.2760E-22
  54733.902    1.1170E-21
  54733.969    1.1399E-21
  54734.047    1.0572E-21
  54734.109    1.0544E-21
  54734.184    1.1990E-21
  54734.250    1.2618E-21
  54734.324    1.1774E-21
  54734.391    1.2996E-21
  54734.457    1.7030E-21
  54734.531    1.8893E-21
  54734.598    1.4457E-21
  54734.672    3.4196E-23
  54734.738   -1.1062E-21
  54734.809   -1.4684E-21
  54734.875   -1.0923E-21
  54734.953   -1.7248E-22
  54735.020    5.0161E-22
  54735.090    1.5438E-22
  54735.156    3.4615E-22
  54735.230    8.9072E-22
  54735.297    1.1060E-21
  54735.363    5.3720E-22
  54735.438    3.4760E-22
  54735.512    8.2160E-22
  54735.578    3.4760E-22
  54735.645   -2.2120E-22
  54735.715    7.2680E-22
  54735.785    1.1060E-21
  54735.859    1.2956E-21
  54735.926    1.0112E-21
  54735.996    7.2680E-22
  54736.063    1.2956E-21
  54736.141    2.3269E-21
  54736.203    2.0843E-21
  54736.277    2.2987E-21
  54736.344    2.2732E-21
  54736.418    2.0372E-21
  54736.484    1.3620E-21
  54736.551   -5.5339E-22
  54736.625    6.3201E-23
  54736.691   -3.1600E-23
  54736.766    5.3720E-22
  54736.832    2.5280E-22
  54736.902   -4.1080E-22
  54736.969   -9.3662E-22
  54737.047   -7.9156E-22
  54737.109   -6.2582E-22
  54737.184   -8.3199E-22
  54737.250   -7.2707E-22
  54737.324   -7.8439E-22
  54737.391   -1.5235E-21
  54737.457   -2.0971E-21
  54737.531   -2.3764E-21
  54737.598   -1.9885E-21
  54737.672   -1.5600E-21
  54737.738   -9.2812E-22
  54737.809   -3.8990E-22
  54737.875   -2.9967E-22
  54737.953   -7.8754E-22
  54738.020   -1.8426E-21
  54738.090   -2.1712E-21
  54738.156   -2.1858E-21
  54738.234   -1.9503E-21
  54738.297   -1.3937E-21
  54738.371   -7.3781E-22
  54738.438   -3.5006E-22
  54738.512   -4.9285E-22
  54738.578   -5.1479E-22
  54738.645   -5.9312E-22
  54738.719    3.5033E-23
  54738.785    5.9346E-22
  54738.859    9.2643E-22
  54738.926    1.5413E-21
  54738.996    1.2332E-21
  54739.063    6.5044E-22
  54739.141   -1.9112E-22
  54739.203   -1.4252E-21
  54739.277   -2.0258E-21
  54739.344   -2.1596E-21
  54739.418   -1.8856E-21
  54739.484   -1.1194E-21
  54739.551   -5.4834E-22
  54739.625   -1.1504E-21
  54739.691   -1.7785E-21
  54739.766   -1.6297E-21
  54739.832   -1.7579E-21
  54739.902   -1.4391E-21
  54739.969   -1.2557E-21
  54740.047   -1.4119E-21
  54740.113   -2.2065E-21
  54740.184   -2.8607E-21
  54740.250   -3.0290E-21
  54740.328   -2.7787E-21
  54740.391   -2.4937E-21
  54740.465   -2.4203E-21
  54740.531   -2.2994E-21
  54740.605   -2.4735E-21
  54740.672   -2.2457E-21
  54740.738   -1.0900E-21
  54740.813    1.2945E-22
  54740.879    8.0944E-22
  54740.953    2.6310E-22
  54741.020   -3.0889E-22
  54741.090   -9.3634E-22
  54741.156   -1.8453E-21
  54741.234   -2.5130E-21
  54741.297   -2.1628E-21
  54741.371   -1.5202E-21
  54741.438   -1.0086E-21
  54741.512   -1.2342E-21
  54741.578   -4.9136E-22
  54741.645    1.8382E-22
  54741.719   -1.5113E-22
  54741.785   -6.4147E-22
  54741.859   -5.1732E-22
  54741.926    5.6340E-22
  54741.996    1.3897E-21
  54742.063    2.0480E-21
  54742.141    2.0243E-21
  54742.207    1.8675E-21
  54742.277    1.6087E-21
  54742.344    1.6367E-21
  54742.422    1.8858E-21
  54742.484    1.0952E-21
  54742.559    3.3125E-22
  54742.625    4.6800E-23
  54742.699   -9.6986E-23
  54742.766    4.8370E-22
  54742.832    1.1980E-21
  54742.906    8.5701E-22
  54742.973    2.8556E-22
  54743.047   -3.2534E-22
  54743.113   -1.6567E-22
  54743.184    1.4182E-22
  54743.250    4.5118E-22
  54743.328    6.2374E-22
  54743.391    6.2132E-22
  54743.465    2.5738E-22
  54743.531   -3.4269E-22
  54743.605   -5.6308E-22
  54743.672   -4.6638E-22
  54743.738   -1.0656E-21
  54743.813   -2.2436E-21
  54743.879   -2.4653E-21
  54743.953   -1.9055E-21
  54744.020   -1.1049E-21
  54744.090   -1.5005E-21
  54744.156   -2.1577E-21
  54744.234   -1.8302E-21
  54744.301   -1.5547E-21
  54744.371   -1.1022E-21
  54744.438   -6.4085E-22
  54744.516   -8.1491E-22
  54744.578    5.2506E-24
  54744.652    7.7356E-22
  54744.719    4.2931E-22
  54744.793    7.1287E-22
  54744.859    4.3849E-22
  54744.926   -1.6067E-22
  54745.000   -9.3115E-22
  54745.066   -1.9339E-21
  54745.141   -2.2449E-21
  54745.207   -1.8549E-21
  54745.277   -6.8846E-22
  54745.344    1.9634E-22
  54745.422    7.3915E-22
  54745.488    1.0986E-21
  54745.559    9.2599E-22
  54745.625    7.5814E-23
  54745.699    1.0861E-22
  54745.766    4.5518E-22
  54745.832    4.1418E-23
  54745.906   -8.5738E-22
  54745.980   -1.4760E-21
  54746.047   -1.2871E-21
  54746.113   -1.2313E-21
  54746.184   -1.6577E-21
  54746.254   -1.7229E-21
  54746.328   -1.7932E-21
  54746.395   -1.2009E-21
  54746.465    4.0002E-22
  54746.531    7.5248E-22
  54746.609    2.6823E-22
  54746.672    5.7143E-22
  54746.746    3.8711E-22
  54746.813    9.8825E-23
  54746.887   -3.8995E-23
  54746.953    6.5658E-23
  54747.020    9.0451E-22
  54747.094    1.7878E-21
  54747.160    2.0644E-21
  54747.234    2.0821E-21
  54747.301    1.7792E-21
  54747.371    1.0026E-21
  54747.438    7.1457E-22
  54747.516    1.1991E-21
  54747.582    2.3886E-21
  54747.652    2.9252E-21
  54747.719    1.9247E-21
  54747.793    8.9761E-22
  54747.859   -5.1720E-22
  54747.934   -1.4174E-21
  54748.000   -1.3114E-21
  54748.074   -1.2250E-21
  54748.141   -1.5452E-21
  54748.207   -1.6693E-21
  54748.281   -2.0243E-21
  54748.348   -2.5907E-21
  54748.422   -2.6385E-21
  54748.488   -2.4270E-21
  54748.559   -1.9829E-21
  54748.625   -1.0955E-21
  54748.703    2.3505E-22
  54748.766    7.8517E-22
  54748.840    1.6057E-22
  54748.906   -6.5076E-23
  54748.980    1.1830E-22
  54749.047    3.2512E-22
  54749.113    3.4614E-22
  54749.188    1.7859E-22
  54749.254    6.2618E-22
  54749.328    4.0563E-22
  54749.395    4.3684E-22
  54749.465    1.4433E-21
  54749.531    1.3802E-21
  54749.609    1.2154E-21
  54749.676    6.8070E-22
  54749.746    6.1955E-22
  54749.813    1.1820E-21
  54749.891    1.0713E-21
  54749.953    6.1719E-22
  54750.027    1.3835E-21
  54750.094    2.7810E-21
  54750.168    4.1121E-21
  54750.234    4.2440E-21
  54750.301    4.3911E-21
  54750.375    4.4998E-21
  54750.441    4.1633E-21
  54750.516    3.1230E-21
  54750.582    2.6832E-21
  54750.652    2.4525E-21
  54750.719    1.8200E-21
  54750.797    1.4583E-21
  54750.863    1.4908E-21
  54750.934    1.5873E-21
  54751.000    2.2778E-21
  54751.074    2.9725E-21
  54751.141    2.7965E-21
  54751.215    2.1948E-21
  54751.281    1.3967E-21
  54751.355    6.5344E-22
  54751.422    2.6466E-22
  54751.488    4.8215E-23
  54751.563   -8.6688E-22
  54751.629   -1.8702E-21
  54751.703   -1.3033E-21
  54751.770   -5.5262E-22
  54751.840   -4.8422E-22
  54751.906    4.2845E-22
  54751.984    1.3591E-21
  54752.047    9.2850E-22
  54752.121    7.0423E-22
  54752.188    2.8047E-22
  54752.262   -2.7801E-22
  54752.328   -1.2693E-21
  54752.395   -2.2721E-21
  54752.469   -2.7771E-21
  54752.535   -2.8506E-21
  54752.609   -2.0590E-21
  54752.676   -1.7470E-21
  54752.746   -1.2935E-21
  54752.813   -6.2576E-22
  54752.891   -5.4109E-22
  54752.957    2.5995E-22
  54753.027    7.0127E-22
  54753.094    4.6097E-22
  54753.172    4.2046E-22
  54753.234   -1.3165E-22
  54753.309   -1.1581E-21
  54753.375   -1.1380E-21
  54753.449   -6.3467E-22
  54753.516    4.9658E-24
  54753.582    1.4381E-21
  54753.656    1.5859E-21
  54753.723    7.7564E-22
  54753.797    4.5109E-22
  54753.863    5.8187E-22
  54753.934    7.6484E-22
  54754.000    1.3932E-21
  54754.078    1.7340E-21
  54754.145    1.4337E-21
  54754.215    1.1194E-21
  54754.281    1.2089E-21
  54754.355    1.0547E-21
  54754.422    1.1464E-21
  54754.496    1.1309E-21
  54754.563    2.2464E-22
  54754.637   -1.1793E-21
  54754.703   -2.4007E-21
  54754.770   -2.9774E-21
  54754.844   -3.0810E-21
  54754.910   -2.5942E-21
  54754.984   -2.5782E-21
  54755.051   -2.3440E-21
  54755.121   -1.6506E-21
  54755.188   -7.9377E-22
  54755.266    2.9399E-22
  54755.328    1.1384E-21
  54755.402    1.4275E-21
  54755.469    9.2702E-22
  54755.543    1.0907E-23
  54755.609   -3.5918E-22
  54755.676   -1.2559E-21
  54755.750   -1.1792E-21
  54755.824   -1.2041E-21
  54755.891   -1.2725E-21
  54755.957   -1.1792E-21
  54756.027   -9.1531E-22
  54756.098    2.8110E-22
  54756.172    1.1001E-21
  54756.238    1.5215E-21
  54756.309    1.0537E-21
  54756.375    4.4557E-22
  54756.453   -1.5112E-22
  54756.516   -2.0364E-22
  54756.590   -4.9036E-23
  54756.656    4.2866E-22
  54756.730    9.2041E-22
  54756.797    7.6997E-22
  54756.863    6.6070E-22
  54756.938    6.7415E-22
  54757.004    1.0342E-21
  54757.078    2.0735E-21
  54757.145    2.2645E-21
  54757.215    2.1381E-21
  54757.281    1.4796E-21
  54757.359    6.2867E-22
  54757.426    6.2743E-22
  54757.496    4.9413E-22
  54757.563    1.1853E-22
  54757.641    4.8214E-22
  54757.703    8.8011E-22
  54757.777    1.1380E-21
  54757.844    1.4577E-21
  54757.918    2.1651E-21
  54757.984    2.7388E-21
  54758.051    2.6437E-21
  54758.125    2.0010E-21
  54758.191    1.9453E-21
  54758.266    2.2070E-21
  54758.332    2.0102E-21
  54758.402    1.3453E-21
  54758.469    7.7927E-22
  54758.547    3.6747E-22
  54758.613   -2.0474E-22
  54758.684   -5.6260E-22
  54758.750   -8.0217E-22
  54758.824   -3.7976E-22
  54758.891    7.2248E-22
  54758.965    1.3178E-21
  54759.031    1.9069E-21
  54759.105    2.1269E-21
  54759.172    1.6821E-21
  54759.238    1.0096E-21
  54759.313   -2.8177E-23
  54759.379   -1.0917E-21
  54759.453   -6.0040E-22
  54759.520    3.6468E-24
  54759.590    6.0033E-22
  54759.656    1.2872E-21
  54759.734    1.8832E-21
  54759.797    1.9653E-21
  54759.871    1.8553E-21
  54759.938    1.5412E-21
  54760.012    1.3498E-21
  54760.078    1.0848E-21
  54760.145    6.2416E-22
  54760.219    4.3332E-22
  54760.293    7.3853E-22
  54760.359    1.0142E-21
  54760.426    1.0950E-21
  54760.496    4.1017E-22
  54760.566   -7.9778E-22
  54760.641   -1.3834E-21
  54760.707   -1.6975E-21
  54760.777   -5.0894E-22
  54760.844    3.3978E-22
  54760.922    5.5403E-22
  54760.984    1.7181E-21
  54761.059    2.3645E-21
  54761.125    2.5255E-21
  54761.199    1.9577E-21
  54761.266    2.3521E-21
  54761.332    3.6597E-21
  54761.406    4.4162E-21
  54761.473    4.4542E-21
  54761.547    3.2831E-21
  54761.613    2.5809E-21
  54761.684    2.1516E-21
  54761.754    2.5286E-21
  54761.828    3.3727E-21
  54761.895    3.1656E-21
  54761.965    2.6197E-21
  54762.031    1.6759E-21
  54762.109    1.2625E-21
  54762.172    2.3382E-21
  54762.246    2.9098E-21
  54762.313    2.3976E-21
  54762.387    1.3547E-21
  54762.453    1.4467E-21
  54762.520    1.9172E-21
  54762.594    2.8455E-21
  54762.660    2.7818E-21
  54762.734    2.3438E-21
  54762.801    1.8941E-21
  54762.871    1.2686E-21
  54762.938    1.0107E-21
  54763.016    1.3056E-21
  54763.082    1.2298E-21
  54763.152    8.7409E-22
  54763.219    3.3584E-22
  54763.297    1.0937E-21
  54763.359    7.4339E-22
  54763.434    7.6555E-22
  54763.500    1.4009E-21
  54763.574    2.4843E-21
  54763.641    1.9435E-21
  54763.707    5.1886E-22
  54763.781   -5.2224E-22
  54763.848   -1.5660E-21
  54763.922   -1.7941E-21
  54763.988   -1.9784E-21
  54764.059   -2.1588E-21
  54764.125   -2.2412E-21
  54764.203   -1.3777E-21
  54764.270   -3.3754E-22
  54764.340   -1.8843E-22
  54764.406    3.3196E-22
  54764.484    1.0575E-21
  54764.547    2.1213E-21
  54764.621    3.4048E-21
  54764.688    3.6963E-21
  54764.762    3.1113E-21
  54764.828    1.8378E-21
  54764.895    5.4821E-22
  54764.969    3.9483E-23
  54765.035    6.3138E-23
  54765.109    1.0980E-21
  54765.176    2.1696E-21
  54765.246    2.4206E-21
  54765.313    1.9473E-21
  54765.391    1.3353E-21
  54765.457    1.3551E-21
  54765.527    1.0342E-21
  54765.594    1.0772E-21
  54765.668    9.2637E-22
  54765.734    6.2787E-22
  54765.809    4.9550E-22
  54765.875   -3.3013E-22
  54765.949   -1.1093E-21
  54766.016   -1.5435E-21
  54766.082   -1.5326E-21
  54766.156   -1.5792E-21
  54766.223   -1.7750E-21
  54766.297   -2.4169E-21
  54766.363   -1.6550E-21
  54766.434   -9.2889E-22
  54766.500    3.4878E-24
  54766.578    7.8116E-22
  54766.645    1.5714E-21
  54766.715    2.0295E-21
  54766.781    2.1795E-21
  54766.855    2.0396E-21
  54766.922    2.1394E-21
  54766.996    1.4565E-21
  54767.063    8.1289E-22
  54767.137    4.8690E-23
  54767.203   -6.5868E-22
  54767.270   -2.8704E-22
  54767.344    1.4312E-21
  54767.410    4.7985E-22
  54767.484    6.2795E-22
  54767.551    1.2329E-21
  54767.621   -3.3126E-22
  54767.688   -7.5016E-22
  54767.766   -1.7158E-21
  54767.832   -1.6050E-21
  54767.902    1.4896E-22
  54767.969    1.2948E-21
  54768.043    2.2137E-21
  54768.109    3.1794E-21
  54768.184    2.9660E-21
  54768.250    2.0655E-21
  54768.324    1.7723E-21
  54768.391    1.4852E-21
  54768.457    8.2160E-22
  54768.531    5.3720E-22
  54768.598    1.0112E-21
  54768.672    1.4852E-21
  54768.738    5.3720E-22
  54768.809   -3.1600E-23
  54768.875    3.4760E-22
  54768.953   -4.1080E-22
  54769.020   -1.1692E-21
  54769.090   -7.9000E-22
  54769.156   -5.0560E-22
  54769.230    6.3201E-23
  54769.297    1.0112E-21
  54769.371    2.0523E-21
  54769.438    1.9472E-21
  54769.512    2.1502E-21
  54769.578    2.5163E-21
  54769.645    1.6938E-21
  54769.719    8.3078E-22
  54769.785   -1.5314E-23
  54769.859   -7.7440E-22
  54769.926   -9.7141E-22
  54769.996   -3.0323E-22
  54770.063    1.1129E-21
  54770.141    2.1522E-21
  54770.207    2.9081E-21
  54770.277    3.1186E-21
  54770.344    2.5973E-21
  54770.418    1.5876E-21
  54770.484    7.8087E-22
  54770.559    1.1615E-22
  54770.625   -7.2070E-22
  54770.699   -7.7904E-22
  54770.766   -7.0258E-22
  54770.832   -1.1550E-21
  54770.906   -1.3862E-21
  54770.973   -1.6370E-21
  54771.047   -1.3678E-21
  54771.113   -1.8023E-21
  54771.184   -1.1692E-21
  54771.250   -6.9520E-22
  54771.328   -7.9000E-22
  54771.395   -1.5484E-21
  54771.465   -1.9276E-21
  54771.531   -1.2640E-21
  54771.605   -9.1239E-22
  54771.672    7.4496E-22
  54771.746    1.7091E-21
  54771.813    1.6568E-21
  54771.887    1.0532E-21
  54771.953    1.1520E-21
  54772.020    1.1704E-21
  54772.094    1.0680E-21
  54772.160    1.7571E-21
  54772.234    2.2152E-21
  54772.301    2.2050E-21
  54772.371    2.2221E-21
  54772.438    1.8124E-21
  54772.516    2.3467E-21
  54772.582    2.7924E-21
  54772.652    2.0334E-21
  54772.719    2.2225E-21
  54772.793    3.1098E-21
  54772.859    3.7343E-21
  54772.934    4.6565E-21
  54773.000    4.6075E-21
  54773.074    5.1678E-21
  54773.141    5.6199E-21
  54773.207    5.4124E-21
  54773.281    4.5958E-21
  54773.348    3.7755E-21
  54773.422    3.1489E-21
  54773.488    3.4056E-21
  54773.559    4.6883E-21
  54773.625    5.9512E-21
  54773.703    7.1221E-21
  54773.770    8.1954E-21
  54773.840    8.9967E-21
  54773.906    7.8629E-21
  54773.980    6.4397E-21
  54774.047    6.3141E-21
  54774.121    6.2264E-21
  54774.188    6.6742E-21
  54774.262    6.6043E-21
  54774.328    6.1420E-21
  54774.395    6.0915E-21
  54774.469    6.9805E-21
  54774.535    6.5705E-21
  54774.609    5.9922E-21
  54774.676    5.8206E-21
  54774.746    5.4030E-21
  54774.813    5.1356E-21
  54774.891    4.2618E-21
  54774.957    3.5242E-21
  54775.027    3.0968E-21
  54775.094    3.5708E-21
  54775.168    3.3812E-21
  54775.234    2.8124E-21
  54775.309    2.3384E-21
  54775.375    1.4852E-21
  54775.449    1.0112E-21
  54775.516    1.7696E-21
  54775.582    2.0540E-21
  54775.656    2.6228E-21
  54775.723    1.9841E-21
  54775.797    2.9674E-21
  54775.863    2.7965E-21
  54775.934    2.6533E-21
  54776.000    2.3810E-21
  54776.078    1.7648E-21
  54776.145    5.0198E-22
  54776.215   -7.3808E-22
  54776.281   -8.7791E-22
  54776.359   -1.7266E-22
  54776.422    7.3559E-22
  54776.496    9.5471E-22
  54776.563    4.1566E-22
  54776.637   -8.0305E-23
  54776.703   -5.0294E-22
  54776.770   -5.6091E-22
  54776.844   -1.8441E-22
  54776.910    5.9970E-22
  54776.984    3.4717E-22
  54777.051   -2.3581E-22
  54777.121   -6.6012E-22
  54777.188   -1.4548E-21
  54777.266   -1.5894E-21
  54777.332   -1.3281E-21
  54777.402   -6.3957E-22
  54777.469   -2.8352E-22
  54777.547   -3.2622E-22
  54777.609   -5.7709E-22
  54777.684   -1.0809E-21
  54777.750   -1.1800E-21
  54777.824   -1.2971E-21
  54777.891   -1.8169E-21
  54777.957   -2.0472E-21
  54778.031   -1.8261E-21
  54778.098   -1.7342E-21
  54778.172   -1.8633E-21
  54778.238   -1.5656E-21
  54778.309   -9.4646E-22
  54778.375   -1.1716E-21
  54778.453   -1.7032E-21
