 16O18O;(9,0);79K;54325-575 cm-1;3634 pts
     WNO          SIG
  54325.043   -2.4875E-21
  54325.113   -2.6325E-21
  54325.180   -2.5887E-21
  54325.250   -2.0940E-21
  54325.320   -1.2030E-21
  54325.387   -6.6977E-22
  54325.457    7.1104E-22
  54325.523    1.4525E-21
  54325.594    1.2306E-21
  54325.664    1.2260E-21
  54325.730    1.4951E-21
  54325.793    1.6504E-21
  54325.863    1.3654E-21
  54325.930    8.9746E-22
  54326.000    3.5147E-22
  54326.070    1.2715E-23
  54326.137   -2.2846E-22
  54326.207   -5.5775E-22
  54326.273   -1.5883E-21
  54326.344   -1.1526E-21
  54326.414    2.8295E-22
  54326.480    1.0291E-21
  54326.551    1.2595E-21
  54326.617    1.7983E-21
  54326.688    2.5163E-21
  54326.758    3.1706E-21
  54326.824    3.7783E-21
  54326.895    3.6700E-21
  54326.961    3.3151E-21
  54327.031    3.5560E-21
  54327.102    3.7107E-21
  54327.168    3.8049E-21
  54327.230    4.2214E-21
  54327.301    2.9836E-21
  54327.367    2.0877E-21
  54327.438    1.8572E-21
  54327.512    1.9225E-21
  54327.574    1.8492E-21
  54327.645    2.0284E-21
  54327.711    2.3701E-21
  54327.781    2.9937E-21
  54327.852    2.9815E-21
  54327.918    2.4390E-21
  54327.988    1.2888E-21
  54328.055   -2.6297E-22
  54328.125   -7.0888E-22
  54328.195   -5.4348E-22
  54328.262   -8.2415E-22
  54328.332   -5.2579E-22
  54328.398    1.4756E-22
  54328.469    1.5043E-22
  54328.539    1.9793E-24
  54328.605   -4.9583E-22
  54328.676   -1.1765E-21
  54328.738   -1.6756E-21
  54328.813   -1.8870E-21
  54328.875   -1.5457E-21
  54328.949   -9.6385E-22
  54329.012   -1.2255E-21
  54329.082   -1.3630E-21
  54329.148   -1.6776E-21
  54329.219   -1.3247E-21
  54329.289   -2.2837E-22
  54329.355   -1.4629E-22
  54329.426   -9.4480E-22
  54329.492   -1.6327E-21
  54329.563   -1.9001E-21
  54329.633   -1.7929E-21
  54329.699   -1.7607E-21
  54329.770   -8.1400E-22
  54329.836    1.1179E-21
  54329.906    2.2471E-21
  54329.977    2.0523E-21
  54330.043    9.9246E-22
  54330.113   -4.0409E-23
  54330.180   -4.5885E-22
  54330.250   -3.5640E-22
  54330.320   -2.4391E-22
  54330.387    5.7228E-22
  54330.449    8.4274E-22
  54330.520    6.1316E-22
  54330.586    3.7326E-22
  54330.656    1.0611E-21
  54330.730    1.0322E-21
  54330.793    5.4942E-22
  54330.863    2.3848E-22
  54330.930   -2.2897E-22
  54331.000    2.4598E-23
  54331.070    2.8451E-22
  54331.137   -5.7914E-22
  54331.207   -9.7089E-22
  54331.273   -5.9469E-22
  54331.344   -8.6458E-22
  54331.414   -1.1787E-21
  54331.480   -1.4310E-21
  54331.551   -1.6578E-21
  54331.617   -1.9017E-21
  54331.688   -1.2348E-21
  54331.758    2.2073E-22
  54331.824    4.7380E-22
  54331.895    3.0961E-22
  54331.957    2.4487E-22
  54332.031   -4.3286E-22
  54332.094   -1.3978E-21
  54332.168   -1.6778E-21
  54332.230   -1.4263E-21
  54332.301   -4.7620E-22
  54332.367   -2.9325E-24
  54332.438   -2.9891E-22
  54332.508   -1.1558E-21
  54332.574   -1.6970E-21
  54332.645   -9.8512E-22
  54332.711   -1.6330E-22
  54332.781    4.6867E-22
  54332.852    1.4260E-22
  54332.918   -7.0430E-23
  54332.988   -1.2646E-21
  54333.055   -1.7907E-21
  54333.125   -1.0928E-21
  54333.195   -3.8217E-22
  54333.262    5.4000E-22
  54333.332    1.4996E-21
  54333.398    2.4157E-21
  54333.469    2.0579E-21
  54333.539    1.4410E-21
  54333.605    8.6892E-22
  54333.668    3.1200E-22
  54333.738   -4.1159E-22
  54333.805   -1.6556E-21
  54333.875   -1.8256E-21
  54333.949   -1.3255E-21
  54334.012   -7.8484E-22
  54334.082   -2.7354E-22
  54334.148   -3.3781E-22
  54334.219   -6.5491E-22
  54334.289   -7.8745E-22
  54334.355   -7.7041E-22
  54334.426   -8.9891E-22
  54334.492   -6.5563E-22
  54334.563   -5.4179E-22
  54334.633   -4.9806E-22
  54334.699   -4.3171E-22
  54334.770    4.2770E-22
  54334.836    1.6501E-21
  54334.906    2.1434E-21
  54334.977    1.3585E-21
  54335.043    8.3707E-22
  54335.113    7.8185E-22
  54335.180    1.2311E-21
  54335.250    1.4115E-21
  54335.320    1.5802E-21
  54335.387    2.0974E-21
  54335.449    1.7552E-21
  54335.520    1.1413E-21
  54335.586    6.2637E-22
  54335.656   -3.1226E-23
  54335.730   -1.1554E-21
  54335.793   -1.7233E-21
  54335.863   -1.9900E-21
  54335.930   -1.7357E-21
  54336.000   -1.1953E-21
  54336.070   -9.5483E-22
  54336.137   -8.3332E-22
  54336.207   -3.1665E-22
  54336.273    1.0648E-22
  54336.344   -3.8743E-22
  54336.414   -6.9728E-22
  54336.480   -1.4976E-22
  54336.551    5.6494E-22
  54336.617    1.2820E-21
  54336.688    2.6273E-21
  54336.758    3.7460E-21
  54336.824    3.7370E-21
  54336.895    3.1461E-21
  54336.957    2.5642E-21
  54337.031    1.6253E-21
  54337.094    9.5154E-22
  54337.168    2.3376E-23
  54337.230   -6.4965E-22
  54337.301   -8.7463E-22
  54337.367   -5.7791E-22
  54337.438   -4.4996E-22
  54337.508   -4.4188E-22
  54337.574   -4.4707E-22
  54337.645    6.5993E-23
  54337.711    3.1863E-23
  54337.781    6.0755E-23
  54337.852    6.0113E-23
  54337.918    5.6707E-23
  54337.988   -1.4387E-22
  54338.055    1.4624E-22
  54338.125    8.1824E-22
  54338.195    4.0566E-22
  54338.262    4.1714E-22
  54338.332    4.3053E-22
  54338.398    4.5937E-22
  54338.469    8.1508E-22
  54338.539    1.5174E-21
  54338.605    1.7455E-21
  54338.676    1.3214E-21
  54338.738    6.3258E-22
  54338.813   -7.1070E-22
  54338.875   -1.9139E-21
  54338.949   -1.9896E-21
  54339.012   -1.6419E-21
  54339.082   -6.6897E-22
  54339.148    2.2450E-22
  54339.219    3.8116E-22
  54339.289   -4.7492E-22
  54339.355   -1.6361E-21
  54339.426   -2.1719E-21
  54339.492   -1.2859E-21
  54339.563   -1.1708E-21
  54339.633   -8.6438E-22
  54339.699   -2.3370E-22
  54339.770   -1.5264E-22
  54339.836    3.8187E-22
  54339.906    4.8982E-22
  54339.977    3.1676E-22
  54340.043    9.9498E-24
  54340.113   -5.4106E-22
  54340.180   -1.5910E-21
  54340.250   -3.0036E-21
  54340.320   -3.5938E-21
  54340.387   -3.5515E-21
  54340.457   -3.4116E-21
  54340.520   -1.8683E-21
  54340.594   -7.0449E-22
  54340.656    2.7131E-22
  54340.730    5.7781E-22
  54340.793    6.4988E-22
  54340.863    7.3545E-22
  54340.930    2.0263E-21
  54341.000    2.1198E-21
  54341.070    9.9690E-22
  54341.137    9.0238E-22
  54341.207    1.5850E-21
  54341.273    1.9146E-21
  54341.344    2.1140E-21
  54341.414    1.4424E-21
  54341.480    4.5128E-22
  54341.551   -2.3400E-22
  54341.617    1.1442E-23
  54341.688    3.9435E-22
  54341.758    9.3006E-22
  54341.824    1.1222E-21
  54341.895    1.6497E-21
  54341.961    2.7612E-21
  54342.031    2.6375E-21
  54342.102    1.6750E-21
  54342.168    3.5703E-22
  54342.238   -3.8288E-22
  54342.301    4.5057E-22
  54342.375    1.9401E-21
  54342.438    2.5563E-21
  54342.512    2.0327E-21
  54342.574    8.6925E-22
  54342.645    2.2090E-22
  54342.711   -1.1113E-22
  54342.781   -5.8679E-22
  54342.852    5.2705E-23
  54342.918    5.0431E-22
  54342.988    9.3008E-22
  54343.055    7.8420E-22
  54343.125    1.6143E-21
  54343.195    2.7303E-21
  54343.262    2.9788E-21
  54343.332    3.3875E-21
  54343.398    3.6033E-21
  54343.469    3.2166E-21
  54343.539    2.0848E-21
  54343.605    1.2365E-21
  54343.676    1.0513E-22
  54343.742   -2.7012E-22
  54343.813    2.1137E-22
  54343.883    8.7725E-22
  54343.949    1.7251E-21
  54344.020    1.6603E-21
  54344.082    1.5940E-21
  54344.156    1.3512E-21
  54344.219    2.0421E-21
  54344.293    2.6914E-21
  54344.355    3.9750E-21
  54344.426    4.1034E-21
  54344.492    3.7642E-21
  54344.563    4.0721E-21
  54344.637    3.9861E-21
  54344.699    4.6810E-21
  54344.770    4.4426E-21
  54344.836    4.0992E-21
  54344.906    3.0592E-21
  54344.977    2.6814E-21
  54345.043    3.0704E-21
  54345.113    2.7165E-21
  54345.180    1.3434E-21
  54345.250    5.7545E-22
  54345.320    1.0589E-22
  54345.387   -7.1339E-22
  54345.457    6.0946E-22
  54345.523    3.0961E-22
  54345.594    6.0773E-22
  54345.664    5.4866E-22
  54345.730    4.1112E-22
  54345.801    6.6488E-22
  54345.867    1.5903E-21
  54345.938    2.6157E-21
  54346.008    2.3283E-21
  54346.074    2.4443E-21
  54346.137    1.9698E-21
  54346.207    1.3479E-21
  54346.273    1.0965E-21
  54346.344    6.2460E-22
  54346.418   -5.4155E-22
  54346.480   -1.2364E-21
  54346.551   -5.0157E-22
  54346.617   -2.4145E-22
  54346.688   -1.6831E-22
  54346.758    1.8859E-22
  54346.824    2.9577E-22
  54346.895   -4.0872E-23
  54346.961   -2.2476E-22
  54347.031   -3.8528E-22
  54347.102   -5.8107E-22
  54347.168   -5.2561E-22
  54347.238   -8.3059E-22
  54347.305   -1.3155E-21
  54347.375   -1.4897E-21
  54347.445   -1.7984E-21
  54347.512   -1.0208E-21
  54347.582   -6.2231E-22
  54347.648   -8.1251E-22
  54347.719   -1.1474E-21
  54347.789   -1.1815E-21
  54347.855   -1.0974E-21
  54347.918   -1.2747E-21
  54347.988   -1.3194E-21
  54348.063   -1.2338E-21
  54348.125    9.9295E-24
  54348.199    6.6042E-22
  54348.262    7.0221E-22
  54348.332    7.3331E-22
  54348.398    3.8644E-22
  54348.469    7.3453E-22
  54348.539    1.7863E-21
  54348.605    2.5678E-21
  54348.676    2.0370E-21
  54348.742    1.4149E-22
  54348.813   -1.3188E-21
  54348.883   -1.6617E-21
  54348.949   -1.4988E-21
  54349.020   -4.8735E-22
  54349.086    7.5276E-23
  54349.156    1.1161E-22
  54349.227    1.6727E-22
  54349.293    3.3520E-22
  54349.363    5.4354E-22
  54349.430    6.8586E-22
  54349.500    7.3755E-22
  54349.570    8.6322E-22
  54349.637    9.8317E-22
  54349.707    1.5659E-21
  54349.773    2.5787E-21
  54349.844    3.6115E-21
  54349.914    4.0696E-21
  54349.980    3.4922E-21
  54350.043    2.6777E-21
  54350.113    2.7902E-21
  54350.180    3.9717E-21
  54350.250    4.5995E-21
  54350.324    5.3260E-21
  54350.387    5.8111E-21
  54350.457    6.4025E-21
  54350.523    6.3086E-21
  54350.594    6.0568E-21
  54350.664    5.6258E-21
  54350.730    5.6243E-21
  54350.801    5.2492E-21
  54350.867    4.7915E-21
  54350.938    5.1368E-21
  54351.008    5.1768E-21
  54351.074    5.2826E-21
  54351.145    5.0154E-21
  54351.211    4.4034E-21
  54351.281    3.1402E-21
  54351.352    2.0915E-21
  54351.418    8.4796E-22
  54351.488   -7.4131E-22
  54351.555   -9.7501E-22
  54351.625   -1.6248E-22
  54351.695    1.0406E-21
  54351.762    2.0821E-21
  54351.832    2.0809E-21
  54351.895    1.7500E-21
  54351.969    1.6894E-21
  54352.031    1.3990E-21
  54352.105    8.9409E-22
  54352.168    1.1401E-22
  54352.238   -2.9317E-22
  54352.305   -4.9886E-22
  54352.375    1.8323E-22
  54352.449    7.7575E-22
  54352.512    6.8436E-22
  54352.582    2.5275E-22
  54352.648    3.7542E-22
  54352.719   -1.2128E-22
  54352.789   -1.2399E-22
  54352.855   -9.3387E-22
  54352.926   -1.7647E-21
  54352.992   -1.4960E-21
  54353.063   -1.5227E-21
  54353.133   -1.7551E-21
  54353.199   -1.3258E-21
  54353.270   -9.7495E-22
  54353.336   -6.1112E-22
  54353.406   -9.6901E-22
  54353.477   -1.0113E-21
  54353.543   -1.3361E-22
  54353.613    8.8430E-22
  54353.680    1.1070E-21
  54353.750    5.1164E-22
  54353.820   -6.3109E-23
  54353.887    1.9499E-22
  54353.949    9.6436E-22
  54354.020    1.2992E-21
  54354.094    1.0106E-21
  54354.156    3.0336E-22
  54354.230   -4.5718E-22
  54354.293   -8.1996E-22
  54354.363   -1.3241E-21
  54354.430   -1.6123E-21
  54354.500   -2.1087E-21
  54354.570   -2.4813E-21
  54354.637   -1.6309E-21
  54354.707   -9.2281E-22
  54354.773   -1.1499E-21
  54354.844   -1.8219E-21
  54354.914   -2.5690E-21
  54354.980   -3.0495E-21
  54355.051   -2.9855E-21
  54355.117   -2.5818E-21
  54355.188   -1.1088E-21
  54355.258    7.3524E-22
  54355.324    1.8202E-21
  54355.395    1.8602E-21
  54355.461    1.3373E-21
  54355.531    3.3898E-22
  54355.602   -3.0558E-22
  54355.668   -3.9464E-22
  54355.738   -8.7548E-22
  54355.805   -5.7773E-22
  54355.875   -7.4804E-22
  54355.945   -1.5114E-21
  54356.012   -1.6503E-21
  54356.074   -1.1427E-21
  54356.145   -9.6100E-22
  54356.219   -6.8038E-22
  54356.281   -1.2121E-23
  54356.355    9.2246E-22
  54356.418    1.2081E-21
  54356.488    1.1289E-21
  54356.555    1.7727E-22
  54356.625   -8.2925E-22
  54356.699   -6.8004E-22
  54356.762   -8.7220E-22
  54356.832   -1.0153E-21
  54356.898   -1.0022E-21
  54356.969   -2.7159E-22
  54357.039   -1.6325E-23
  54357.105    2.2067E-22
  54357.176    3.5417E-22
  54357.242   -2.6553E-22
  54357.313   -1.1092E-21
  54357.383   -2.1456E-21
  54357.449   -2.4147E-21
  54357.520   -1.7224E-21
  54357.586   -1.0471E-21
  54357.656   -4.2425E-22
  54357.727   -2.7356E-22
  54357.793   -6.3479E-22
  54357.863   -9.3658E-22
  54357.930   -1.4292E-21
  54358.000   -1.4834E-21
  54358.070   -1.3431E-21
  54358.137   -2.0936E-21
  54358.207   -2.7388E-21
  54358.270   -3.4773E-21
  54358.344   -3.5127E-21
  54358.406   -1.7868E-21
  54358.480   -2.3269E-22
  54358.543    1.4376E-21
  54358.613    2.2805E-21
  54358.680    2.1933E-21
  54358.750    1.6768E-21
  54358.824    1.5492E-21
  54358.887    9.3047E-22
  54358.957    5.0170E-22
  54359.023    1.1537E-21
  54359.094    1.3402E-21
  54359.164    1.3784E-21
  54359.230    1.5258E-21
  54359.301    1.1338E-21
  54359.367    1.2850E-21
  54359.438    5.4200E-22
  54359.508   -4.3403E-22
  54359.574   -5.5273E-22
  54359.645   -1.0619E-21
  54359.711   -8.7754E-22
  54359.781   -7.0754E-22
  54359.852   -1.2070E-21
  54359.918   -1.3791E-21
  54359.988   -1.0396E-21
  54360.055   -5.9513E-22
  54360.125   -6.9060E-22
  54360.195   -1.5739E-21
  54360.262   -1.4101E-21
  54360.332   -4.6741E-22
  54360.398    4.4092E-22
  54360.469    1.1906E-21
  54360.539    1.6985E-21
  54360.605    2.6369E-21
  54360.668    2.3290E-21
  54360.738    1.6842E-21
  54360.805    1.7408E-21
  54360.875    1.2733E-21
  54360.949    1.0752E-21
  54361.012    1.6207E-21
  54361.082    2.0127E-21
  54361.148    1.4866E-21
  54361.219    5.5420E-22
  54361.289   -2.0131E-22
  54361.355   -2.4229E-22
  54361.426   -8.6441E-22
  54361.492   -1.4648E-21
  54361.563   -2.2563E-21
  54361.633   -3.1232E-21
  54361.699   -2.9947E-21
  54361.770   -2.5045E-21
  54361.836   -1.7406E-21
  54361.906   -1.2061E-21
  54361.977   -8.4764E-22
  54362.043   -1.0731E-21
  54362.113   -6.4071E-22
  54362.180    6.5529E-23
  54362.250    5.8284E-22
  54362.320    7.6355E-22
  54362.387    1.2942E-21
  54362.457    1.0576E-21
  54362.523    1.0523E-21
  54362.594    1.1850E-21
  54362.664    1.4242E-21
  54362.730    1.4765E-21
  54362.801    8.9395E-22
  54362.863    2.0869E-22
  54362.938   -5.1777E-22
  54363.000   -9.5620E-22
  54363.074   -7.8241E-22
  54363.137   -7.0085E-22
  54363.207   -8.6862E-22
  54363.273   -1.2345E-21
  54363.344   -1.9430E-21
  54363.418   -1.8450E-21
  54363.480   -1.2721E-21
  54363.551   -7.5776E-22
  54363.617   -6.3828E-22
  54363.688   -2.7365E-22
  54363.758    2.2831E-22
  54363.824    5.7189E-22
  54363.895    2.1729E-22
  54363.961   -9.8963E-23
  54364.031    3.3876E-22
  54364.102    3.3618E-22
  54364.168   -1.0961E-22
  54364.238   -5.9181E-22
  54364.305   -1.7119E-21
  54364.375   -2.0332E-21
  54364.445   -1.5720E-21
  54364.512   -9.0890E-22
  54364.582   -6.7107E-22
  54364.648   -1.1885E-21
  54364.719   -5.5812E-22
  54364.789    3.1678E-22
  54364.855    1.3573E-21
  54364.926    2.2118E-21
  54364.992    2.6180E-21
  54365.063    2.5550E-21
  54365.133    2.1022E-21
  54365.199    2.1820E-21
  54365.262    2.2551E-21
  54365.332    2.6155E-21
  54365.406    3.6304E-21
  54365.469    3.8582E-21
  54365.543    3.5807E-21
  54365.605    3.8106E-21
  54365.676    3.7074E-21
  54365.742    3.1993E-21
  54365.813    2.2612E-21
  54365.887    1.5080E-21
  54365.949    1.3053E-21
  54366.020    1.6726E-21
  54366.086    2.3095E-21
  54366.156    2.5936E-21
  54366.227    2.2240E-21
  54366.293    1.5311E-21
  54366.363    1.2494E-21
  54366.430    1.8718E-21
  54366.500    2.4633E-21
  54366.570    3.0731E-21
  54366.637    3.9468E-21
  54366.707    4.4137E-21
  54366.773    4.3639E-21
  54366.844    4.0135E-21
  54366.914    3.7469E-21
  54366.980    3.9771E-21
  54367.051    2.9292E-21
  54367.117    6.8407E-21
  54367.188    6.0151E-21
  54367.258    5.4570E-21
  54367.324    4.5499E-21
  54367.395    3.7525E-21
  54367.461    5.7028E-21
  54367.531    5.4939E-21
  54367.602    3.1556E-21
  54367.668    2.7240E-21
  54367.730    1.3997E-21
  54367.801   -1.6687E-22
  54367.875    3.0587E-23
  54367.938    4.5391E-22
  54368.012    3.6680E-21
  54368.074    3.7059E-21
  54368.145    3.5776E-21
  54368.211    3.6580E-21
  54368.281    5.7032E-21
  54368.355    6.2431E-21
  54368.418    5.5574E-21
  54368.488    5.6738E-21
  54368.555    5.1611E-21
  54368.625    4.3714E-21
  54368.695    3.5689E-21
  54368.762    2.7502E-21
  54368.832    2.0872E-21
  54368.898    1.1491E-21
  54368.969    2.4848E-22
  54369.039    3.5349E-22
  54369.105    6.4961E-22
  54369.176    3.2641E-22
  54369.242   -3.8522E-22
  54369.313   -9.5866E-22
  54369.383   -7.1779E-22
  54369.449    1.4564E-22
  54369.520    4.2948E-22
  54369.586    1.2214E-22
  54369.656   -9.8238E-22
  54369.727   -1.7874E-21
  54369.793   -1.8185E-22
  54369.863   -1.2609E-21
  54369.930   -2.0678E-21
  54370.000   -2.2452E-21
  54370.070   -4.0021E-22
  54370.137    4.0289E-23
  54370.207    7.6776E-23
  54370.270    2.1180E-21
  54370.344    2.4235E-21
  54370.414    1.5887E-21
  54370.480    2.5209E-21
  54370.543    3.6219E-21
  54370.613    4.3408E-21
  54370.680    5.0271E-21
  54370.750    5.1247E-21
  54370.824    4.1649E-21
  54370.887    2.8796E-21
  54370.957    2.3056E-21
  54371.023    2.1360E-21
  54371.094    4.8404E-21
  54371.164    6.2020E-21
  54371.230    5.9021E-21
  54371.301    6.3795E-21
  54371.367    5.3039E-21
  54371.438    5.2396E-21
  54371.508    5.7420E-21
  54371.574    9.2344E-21
  54371.645    9.0674E-21
  54371.711    7.7924E-21
  54371.781    8.9331E-21
  54371.852    1.0386E-20
  54371.918    1.1079E-20
  54371.988    1.2226E-20
  54372.055    1.3132E-20
  54372.125    1.3732E-20
  54372.195    1.4394E-20
  54372.262    1.4573E-20
  54372.332    1.4558E-20
  54372.398    1.4528E-20
  54372.469    1.4754E-20
  54372.539    1.4414E-20
  54372.605    1.3708E-20
  54372.676    1.3994E-20
  54372.742    1.3486E-20
  54372.813    1.2066E-20
  54372.883    9.9388E-21
  54372.949    8.5367E-21
  54373.020    8.4514E-21
  54373.082    9.2620E-21
  54373.156    9.8537E-21
  54373.227    1.0086E-20
  54373.293    9.7132E-21
  54373.355    8.7204E-21
  54373.426    8.0177E-21
  54373.492    6.5880E-21
  54373.563    5.5281E-21
  54373.637    3.7360E-21
  54373.699    1.4570E-21
  54373.770   -2.8053E-22
  54373.836   -1.0175E-21
  54373.906   -1.2018E-21
  54373.977   -1.3309E-21
  54374.043   -9.8643E-22
  54374.113   -1.5061E-21
  54374.180   -1.2406E-21
  54374.250   -4.8149E-22
  54374.320    4.7793E-22
  54374.387    5.3619E-22
  54374.457   -1.2460E-22
  54374.523   -2.4407E-22
  54374.594   -5.1713E-22
  54374.664   -5.3918E-22
  54374.730   -2.3616E-22
  54374.801   -1.3207E-22
  54374.867   -1.4470E-22
  54374.938   -1.0347E-22
  54375.008   -3.3284E-22
  54375.074   -1.0183E-22
  54375.145   -2.2556E-22
  54375.211   -1.0764E-21
  54375.281   -2.1254E-21
  54375.352   -2.5907E-21
  54375.418   -2.1598E-21
  54375.488   -1.5446E-21
  54375.555   -6.5810E-22
  54375.625    1.9617E-22
  54375.695    1.0387E-21
  54375.762    2.2468E-21
  54375.832    2.8021E-21
  54375.895    2.3859E-21
  54375.969    1.9188E-21
  54376.039    1.6506E-21
  54376.105    1.9770E-21
  54376.168    2.4359E-21
  54376.238    2.4471E-21
  54376.305    2.5660E-21
  54376.375    2.5140E-21
  54376.449    2.8745E-21
  54376.512    3.0997E-21
  54376.582    2.7802E-21
  54376.648    2.3860E-21
  54376.719    1.8494E-21
  54376.789    1.4264E-21
  54376.855    1.4104E-21
  54376.926    1.7769E-21
  54376.992    2.1170E-21
  54377.063    2.1715E-21
  54377.133    1.8058E-21
  54377.199    9.9344E-22
  54377.270    7.9667E-22
  54377.336    9.8941E-22
  54377.406    1.1305E-21
  54377.477    3.1891E-22
