 16O18O;(6,0);79K;52850-3075 cm-1;3463 pts
     WNO          SIG
  52850.020    4.5686E-22
  52850.082    3.5636E-22
  52850.148    3.2669E-22
  52850.211    3.0823E-22
  52850.281    3.0028E-22
  52850.344    2.9820E-22
  52850.406    2.3928E-22
  52850.477    1.7368E-22
  52850.539    1.3905E-22
  52850.605    8.7157E-23
  52850.668    1.9889E-23
  52850.738   -1.5736E-22
  52850.801   -2.5642E-22
  52850.863   -2.4011E-22
  52850.926   -1.0443E-22
  52850.988    1.3855E-22
  52851.055    4.0423E-22
  52851.117    4.8418E-22
  52851.188    4.2935E-22
  52851.250    3.4091E-22
  52851.313    1.8440E-22
  52851.383    8.7216E-23
  52851.445    1.3011E-23
  52851.512   -9.6661E-24
  52851.574    2.2863E-23
  52851.645    6.7920E-23
  52851.707    1.2236E-22
  52851.770    9.7737E-23
  52851.832    2.4209E-23
  52851.895   -7.2507E-23
  52851.961   -3.8980E-23
  52852.023    2.1802E-23
  52852.094   -5.4435E-23
  52852.156   -9.7703E-23
  52852.219   -1.2095E-22
  52852.281   -1.1998E-22
  52852.352   -4.6299E-23
  52852.414   -5.2164E-23
  52852.480    2.4411E-23
  52852.543    1.0672E-22
  52852.613    1.5899E-22
  52852.676    1.6604E-22
  52852.738    9.7385E-23
  52852.801    1.2109E-23
  52852.863   -6.9819E-23
  52852.930   -1.4875E-22
  52852.992   -1.8132E-22
  52853.063   -1.4528E-22
  52853.125   -1.0385E-22
  52853.188   -4.3895E-23
  52853.258    9.5156E-23
  52853.320    2.3172E-22
  52853.387    2.3321E-22
  52853.449    2.6105E-22
  52853.520    1.9401E-22
  52853.582    1.1184E-24
  52853.645   -1.0451E-22
  52853.707   -9.4075E-23
  52853.770   -2.7232E-23
  52853.836    7.6756E-23
  52853.898    1.3165E-22
  52853.969    9.8674E-23
  52854.031    1.7222E-22
  52854.094    2.9677E-22
  52854.164    3.4752E-22
  52854.227    3.4775E-22
  52854.293    3.2387E-22
  52854.355    2.9433E-22
  52854.426    2.3591E-22
  52854.488    1.8716E-22
  52854.551    7.3954E-23
  52854.613   -3.6022E-23
  52854.676   -1.0983E-22
  52854.742   -1.9125E-22
  52854.805   -2.8748E-22
  52854.875   -2.2833E-22
  52854.938   -1.2551E-22
  52855.000    4.9544E-23
  52855.063    1.6300E-22
  52855.133    1.9899E-22
  52855.195    8.4401E-23
  52855.262   -6.7866E-23
  52855.324   -8.6546E-23
  52855.395   -9.5945E-23
  52855.457   -7.8395E-23
  52855.520   -5.8086E-24
  52855.582    2.7121E-23
  52855.645    8.0563E-23
  52855.711    8.1760E-23
  52855.773    9.9892E-23
  52855.844    9.2159E-23
  52855.906    6.3254E-23
  52855.969    1.0372E-22
  52856.039    7.5625E-23
  52856.102    4.6427E-23
  52856.168    9.3424E-23
  52856.230    6.3330E-23
  52856.301    1.6448E-22
  52856.363    2.4750E-22
  52856.426    2.5442E-22
  52856.488    2.3032E-22
  52856.551    1.6065E-22
  52856.617    8.7254E-23
  52856.680    7.7905E-23
  52856.750    1.2857E-22
  52856.813    2.0046E-22
  52856.875    3.1996E-22
  52856.945    5.0978E-22
  52857.008    5.8591E-22
  52857.074    5.7481E-22
  52857.137    4.2593E-22
  52857.207    2.4443E-22
  52857.270    1.1699E-22
  52857.332    1.1095E-22
  52857.395    2.6065E-22
  52857.457    3.8238E-22
  52857.523    3.7620E-22
  52857.586    2.2241E-22
  52857.656    6.4202E-23
  52857.719    1.7014E-23
  52857.781   -1.8862E-24
  52857.844    9.1959E-23
  52857.914    1.7409E-22
  52857.980    9.7780E-23
  52858.043    9.0913E-23
  52858.113    6.2023E-23
  52858.176   -1.9767E-25
  52858.238   -1.8454E-23
  52858.301   -7.8045E-24
  52858.363    1.3794E-22
  52858.430    2.4993E-22
  52858.492    3.3960E-22
  52858.563    3.6524E-22
  52858.625    3.1859E-22
  52858.688    2.2023E-22
  52858.750    4.1933E-23
  52858.820   -9.4692E-23
  52858.883   -1.2351E-22
  52858.949   -9.0585E-23
  52859.012   -5.8031E-23
  52859.082   -2.1494E-23
  52859.145    9.1506E-23
  52859.207    1.3250E-22
  52859.270    1.1463E-22
  52859.332    3.0713E-23
  52859.398    7.9354E-23
  52859.461    2.1993E-22
  52859.531    1.6231E-22
  52859.594    2.1164E-23
  52859.656    1.4527E-23
  52859.727    2.3671E-23
  52859.789    5.8905E-24
  52859.855    1.4923E-22
  52859.918    2.0567E-22
  52859.988    2.3684E-22
  52860.051    2.9980E-22
  52860.113    3.5601E-22
  52860.176    3.0661E-22
  52860.238    2.8543E-22
  52860.305    2.9319E-22
  52860.367    2.6086E-22
  52860.438    1.5401E-22
  52860.500    1.3281E-22
  52860.563    1.7387E-22
  52860.633    2.1147E-22
  52860.695    2.7239E-22
  52860.762    3.3268E-22
  52860.824    3.7785E-22
  52860.895    3.2336E-22
  52860.957    2.4334E-22
  52861.020    2.3918E-22
  52861.082    3.1515E-22
  52861.145    3.6656E-22
  52861.211    3.4072E-22
  52861.273    4.0852E-22
  52861.344    4.7208E-22
  52861.406    3.8452E-22
  52861.469    3.5478E-22
  52861.539    3.1484E-22
  52861.602    2.5406E-22
  52861.668    2.1054E-22
  52861.730    2.4309E-22
  52861.801    2.5154E-22
  52861.863    2.7624E-22
  52861.926    3.8159E-22
  52861.988    4.1866E-22
  52862.051    4.6263E-22
  52862.117    4.8723E-22
  52862.180    5.2758E-22
  52862.250    4.7557E-22
  52862.313    4.2697E-22
  52862.375    4.0123E-22
  52862.438    4.2728E-22
  52862.508    4.4599E-22
  52862.574    4.6185E-22
  52862.637    4.4903E-22
  52862.707    3.4902E-22
  52862.770    1.9408E-22
  52862.832   -1.7636E-23
  52862.895   -1.2527E-22
  52862.957   -1.1952E-22
  52863.023   -5.0037E-23
  52863.086    6.6692E-23
  52863.156    1.3164E-22
  52863.219    2.3498E-22
  52863.281    5.5864E-23
  52863.344    5.2308E-23
  52863.414    6.1435E-23
  52863.480    1.1253E-22
  52863.543    7.5064E-23
  52863.613    6.9452E-23
  52863.676    5.6293E-24
  52863.738   -3.8915E-23
  52863.801   -6.2167E-23
  52863.863   -1.2618E-22
  52863.926   -5.6722E-24
  52863.992    1.5652E-22
  52864.063    2.8214E-22
  52864.125    2.7396E-22
  52864.188    3.7559E-22
  52864.250    4.5954E-22
  52864.320    5.0378E-22
  52864.383    4.3376E-22
  52864.449    3.5329E-22
  52864.512    2.5878E-22
  52864.582    2.6108E-22
  52864.645    2.8085E-22
  52864.707    2.3805E-22
  52864.770    2.3278E-22
  52864.832    2.5729E-22
  52864.898    3.0235E-22
  52864.961    3.1938E-22
  52865.031    2.8249E-22
  52865.094    2.9424E-22
  52865.156    3.1103E-22
  52865.227    4.0677E-22
  52865.289    4.6253E-22
  52865.355    4.6815E-22
  52865.418    4.1335E-22
  52865.488    3.5082E-22
  52865.551    1.8650E-22
  52865.613    1.0764E-22
  52865.676    1.4398E-22
  52865.738    1.4406E-22
  52865.805    1.6331E-22
  52865.867    1.2248E-22
  52865.938    8.3123E-23
  52866.000    2.3418E-23
  52866.063   -5.0676E-23
  52866.133    2.7894E-24
  52866.195    1.6399E-22
  52866.262    1.8986E-22
  52866.324    1.8663E-22
  52866.395    2.2001E-22
  52866.457    2.0481E-22
  52866.520    2.8949E-22
  52866.582    3.4925E-22
  52866.645    2.8742E-22
  52866.711    1.7519E-22
  52866.773    1.3676E-22
  52866.844    1.0797E-22
  52866.906   -3.4441E-23
  52866.969    7.8233E-24
  52867.039    1.2600E-22
  52867.102    1.9771E-22
  52867.168    3.3649E-22
  52867.230    3.4849E-22
  52867.301    3.1870E-22
  52867.363    2.1691E-22
  52867.426    1.2336E-22
  52867.488    1.2872E-22
  52867.551    1.7856E-22
  52867.617    2.8703E-22
  52867.680    2.6462E-22
  52867.750    1.7020E-22
  52867.813    5.9583E-23
  52867.875   -3.3766E-23
  52867.945   -8.3557E-23
  52868.008   -8.4318E-23
  52868.074   -1.0527E-22
  52868.137   -1.3762E-22
  52868.207   -9.3978E-23
  52868.270   -1.5747E-23
  52868.332   -4.1136E-23
  52868.395   -3.8672E-23
  52868.457   -6.1053E-23
  52868.523   -9.3165E-23
  52868.586   -9.0327E-23
  52868.656   -6.4191E-23
  52868.719   -2.7801E-23
  52868.781    1.1127E-22
  52868.852    2.4885E-22
  52868.914    3.2245E-22
  52868.980    3.0182E-22
  52869.043    2.6552E-22
  52869.113    1.5524E-22
  52869.176    1.1128E-22
  52869.238    1.0422E-22
  52869.301    6.2541E-23
  52869.363    2.2153E-23
  52869.430    3.5569E-23
  52869.492   -3.2926E-23
  52869.563   -4.4130E-23
  52869.625    2.1178E-23
  52869.688    1.5881E-22
  52869.758    3.0814E-22
  52869.820    3.9231E-22
  52869.887    3.5659E-22
  52869.949    2.5856E-22
  52870.020    2.7299E-22
  52870.082    2.7567E-22
  52870.145    2.5993E-22
  52870.207    2.8787E-22
  52870.270    2.6532E-22
  52870.336    2.1664E-22
  52870.398    2.5077E-22
  52870.469    2.6418E-22
  52870.531    1.9630E-22
  52870.594    2.3949E-22
  52870.664    2.8539E-22
  52870.727    3.5073E-22
  52870.793    3.7335E-22
  52870.855    2.9006E-22
  52870.926    2.1534E-22
  52870.988    1.1359E-22
  52871.051    3.4393E-23
  52871.113   -2.0787E-23
  52871.176    6.0931E-23
  52871.242    2.4402E-22
  52871.305    2.9380E-22
  52871.375    2.0887E-22
  52871.438    1.0244E-22
  52871.500    1.2580E-22
  52871.570    1.8385E-22
  52871.633    1.7516E-22
  52871.699    1.3016E-22
  52871.762    7.0309E-23
  52871.832    5.3514E-23
  52871.895    5.9816E-23
  52871.957    1.3314E-22
  52872.020    2.9044E-23
  52872.082   -3.9635E-23
  52872.148   -5.9956E-23
  52872.211   -4.0053E-23
  52872.281    2.2607E-23
  52872.344    3.2545E-23
  52872.406    2.6151E-23
  52872.477    6.7103E-23
  52872.539    1.4758E-22
  52872.605    1.1573E-22
  52872.668    4.5916E-23
  52872.738   -7.3200E-23
  52872.801   -1.4207E-22
  52872.863   -6.7301E-23
  52872.926    1.7119E-22
  52872.988    3.7808E-22
  52873.055    4.0444E-22
  52873.117    2.9373E-22
  52873.188    1.2264E-22
  52873.250    1.5607E-23
  52873.313   -1.7956E-23
  52873.383    3.9920E-23
  52873.445    2.9327E-23
  52873.512   -1.1377E-22
  52873.574   -1.6745E-22
  52873.645   -1.6102E-22
  52873.707   -1.4304E-22
  52873.770   -1.5087E-22
  52873.832   -1.0398E-22
  52873.895    9.1627E-23
  52873.961    1.6036E-22
  52874.023    2.0222E-22
  52874.094    1.3396E-22
  52874.156    6.0462E-23
  52874.219    4.9575E-23
  52874.289    2.8798E-23
  52874.352    2.3570E-23
  52874.418    6.0584E-23
  52874.480    1.4606E-23
  52874.551   -1.7356E-23
  52874.613   -4.8610E-23
  52874.676   -3.4505E-24
  52874.738    4.9192E-23
  52874.801    5.4094E-23
  52874.867   -5.0907E-24
  52874.930   -4.4906E-23
  52875.000   -9.4823E-23
  52875.063    4.1875E-23
  52875.125    1.6726E-22
  52875.195    1.6072E-22
  52875.258    1.4890E-22
  52875.324    9.1829E-23
  52875.387    2.7000E-24
  52875.457   -1.2277E-23
  52875.520   -2.8212E-23
  52875.582   -2.7397E-23
  52875.645    6.3065E-23
  52875.707    5.6664E-23
  52875.773    3.9011E-23
  52875.836    4.3047E-23
  52875.906    3.6978E-23
  52875.969    1.3004E-23
  52876.031    2.0612E-23
  52876.102    6.1803E-23
  52876.164    2.1305E-22
  52876.230    2.7839E-22
  52876.293    1.6593E-22
  52876.363   -3.7302E-23
  52876.426   -1.1087E-22
  52876.488   -4.2612E-23
  52876.551    1.7454E-22
  52876.613    3.0802E-22
  52876.680    3.8875E-22
  52876.742    4.0460E-22
  52876.813    3.5036E-22
  52876.875    3.2934E-22
  52876.938    2.9981E-22
  52877.008    3.3020E-22
  52877.070    2.7418E-22
  52877.137    2.1113E-22
  52877.199    2.2182E-22
  52877.270    2.3440E-22
  52877.332    2.6903E-22
  52877.395    3.3979E-22
  52877.457    3.9985E-22
  52877.520    3.3420E-22
  52877.586    2.0597E-22
  52877.648    1.0168E-22
  52877.719    5.3244E-23
  52877.781   -1.0224E-23
  52877.844   -1.1342E-22
  52877.914   -1.5326E-22
  52877.977   -1.8564E-22
  52878.043   -1.3306E-22
  52878.105   -4.8231E-23
  52878.176    6.3103E-24
  52878.238    2.2308E-23
  52878.301    4.3119E-25
  52878.363    2.3387E-23
  52878.426   -4.6228E-23
  52878.492   -2.9502E-23
  52878.555    5.0815E-23
  52878.625    1.4397E-22
  52878.688    3.3269E-22
  52878.750    4.0244E-22
  52878.820    4.3009E-22
  52878.883    3.9737E-22
  52878.949    3.6213E-22
  52879.012    3.2701E-22
  52879.082    2.2088E-22
  52879.145    1.1935E-22
  52879.207    1.2164E-22
  52879.270    2.4857E-23
  52879.332    1.6583E-23
  52879.398   -9.5922E-24
  52879.469   -3.1711E-23
  52879.531    5.9444E-23
  52879.594    1.8523E-22
  52879.656    2.2197E-22
  52879.727    2.0868E-22
  52879.789    1.8253E-22
  52879.855    1.2939E-22
  52879.926    1.7503E-22
  52879.988    2.4976E-22
  52880.051    2.6007E-22
  52880.113    2.7705E-22
  52880.176    3.5213E-22
  52880.242    3.8634E-22
  52880.305    2.5044E-22
  52880.375    1.6794E-22
  52880.438    2.8658E-22
  52880.500    4.6018E-22
  52880.563    5.2339E-22
  52880.633    4.7576E-22
  52880.699    3.2932E-22
  52880.762    2.0733E-22
  52880.832    1.8592E-22
  52880.895    1.8546E-22
  52880.957    2.4768E-22
  52881.020    2.6929E-22
  52881.082    2.2581E-22
  52881.148    2.6589E-22
  52881.211    3.2481E-22
  52881.281    3.6940E-22
  52881.344    4.5267E-22
  52881.406    4.0558E-22
  52881.477    3.3074E-22
  52881.539    2.0412E-22
  52881.605    1.8797E-22
  52881.668    2.9532E-22
  52881.738    4.7901E-22
  52881.801    5.1459E-22
  52881.863    5.7810E-22
  52881.926    7.5584E-22
  52881.988    9.0344E-22
  52882.055    1.0561E-21
  52882.117    1.1085E-21
  52882.188    1.0179E-21
  52882.250    9.1968E-22
  52882.313    9.1334E-22
  52882.383    1.0215E-21
  52882.445    1.0212E-21
  52882.512    1.0479E-21
  52882.574    1.0462E-21
  52882.645    1.0385E-21
  52882.707    1.0703E-21
  52882.770    1.1408E-21
  52882.832    1.1765E-21
  52882.895    1.2334E-21
  52882.961    1.2672E-21
  52883.023    1.1768E-21
  52883.094    1.0566E-21
  52883.156    9.5434E-22
  52883.219    7.9885E-22
  52883.289    6.1002E-22
  52883.352    4.2817E-22
  52883.418    3.4487E-22
  52883.480    3.5399E-22
  52883.551    4.2996E-22
  52883.613    4.8121E-22
  52883.676    5.1503E-22
  52883.738    4.8736E-22
  52883.801    4.2861E-22
  52883.867    3.5737E-22
  52883.930    1.5589E-22
  52884.000    1.2575E-22
  52884.063    1.8793E-22
  52884.125    2.5680E-22
  52884.195    2.6159E-22
  52884.258    2.2252E-22
  52884.324    2.0281E-22
  52884.387    2.6871E-22
  52884.457    3.6646E-22
  52884.520    4.3242E-22
  52884.582    4.8100E-22
  52884.645    4.7658E-22
  52884.711    4.7275E-22
  52884.773    4.3795E-22
  52884.844    3.4805E-22
  52884.906    1.9959E-22
  52884.969    1.0036E-22
  52885.031   -6.8434E-23
  52885.102   -1.3084E-22
  52885.168   -1.1362E-22
  52885.230   -7.0108E-24
  52885.301    2.5053E-22
  52885.363    5.1702E-22
  52885.426    6.2541E-22
  52885.488    6.5757E-22
  52885.551    6.2170E-22
  52885.617    5.0426E-22
  52885.680    3.1785E-22
  52885.750    2.2992E-22
  52885.813    1.8027E-22
  52885.875    1.5032E-22
  52885.945    1.6040E-22
  52886.008    2.0287E-22
  52886.074    2.4228E-22
  52886.137    3.3925E-22
  52886.207    3.5535E-22
  52886.270    3.3835E-22
  52886.332    3.8600E-22
  52886.395    3.6911E-22
  52886.457    2.2397E-22
  52886.523    9.8047E-23
  52886.586   -2.7672E-23
  52886.656   -6.4106E-23
  52886.719    3.0611E-23
  52886.781    1.6413E-22
  52886.852    2.4735E-22
  52886.914    2.9292E-22
  52886.980    1.9115E-22
  52887.043    1.5658E-22
  52887.113    1.7075E-22
  52887.176    1.8126E-22
  52887.238    2.8218E-22
  52887.301    4.1292E-22
  52887.363    4.5565E-22
  52887.430    4.5006E-22
  52887.492    3.8070E-22
  52887.563    2.6973E-22
  52887.625    1.1865E-22
  52887.688   -8.9531E-23
  52887.758   -2.6863E-22
  52887.820   -2.9584E-22
  52887.887   -1.8205E-22
  52887.949   -1.6815E-22
  52888.020   -1.1289E-22
  52888.082   -1.2136E-23
  52888.145    6.0785E-23
  52888.207    1.9559E-22
  52888.273    3.2434E-22
  52888.336    4.0358E-22
  52888.406    4.4577E-22
  52888.469    5.1746E-22
  52888.531    4.6844E-22
  52888.594    3.5655E-22
  52888.664    2.5405E-22
  52888.730    2.3362E-22
  52888.793    2.3559E-22
  52888.863    2.3464E-22
  52888.926    1.7414E-22
  52888.988    1.2194E-22
  52889.051    1.0038E-22
  52889.113    1.6558E-22
  52889.180    2.2439E-22
  52889.242    2.2686E-22
  52889.313    1.4434E-22
  52889.375    6.5060E-23
  52889.438    1.0771E-22
  52889.508    5.8318E-23
  52889.570    2.5407E-23
  52889.637    1.6114E-22
  52889.699    2.8641E-22
  52889.770    3.8121E-22
  52889.832    4.6046E-22
  52889.895    5.0737E-22
  52889.957    4.7145E-22
  52890.020    4.1094E-22
  52890.086    3.0840E-22
  52890.148    2.7439E-22
  52890.219    3.6758E-22
  52890.281    4.0894E-22
  52890.344    3.9555E-22
  52890.414    4.0966E-22
  52890.477    4.0546E-22
  52890.543    3.7120E-22
  52890.605    2.8459E-22
  52890.676    2.8379E-22
  52890.738    3.0781E-22
  52890.801    3.6446E-22
  52890.863    3.9607E-22
  52890.926    3.2163E-22
  52890.992    2.9970E-22
  52891.063    3.7867E-22
  52891.125    4.7247E-22
  52891.188    5.8205E-22
  52891.250    5.7333E-22
  52891.320    3.5004E-22
  52891.387    1.5294E-22
  52891.449    6.7220E-23
  52891.520    8.9045E-23
  52891.582    2.1916E-22
  52891.645    3.3298E-22
  52891.707    3.9643E-22
  52891.770    3.4788E-22
  52891.836    2.0942E-22
  52891.898    2.4646E-22
  52891.969    2.9838E-22
  52892.031    3.0418E-22
  52892.094    3.2898E-22
  52892.164    3.7708E-22
  52892.227    3.7398E-22
  52892.293    2.0500E-22
  52892.355    2.5230E-22
  52892.426    2.2392E-22
  52892.488    2.0500E-22
  52892.551    1.5770E-22
  52892.613    1.8608E-22
  52892.676    2.5230E-22
  52892.742    2.6176E-22
  52892.805    2.2392E-22
  52892.875    2.7272E-22
  52892.938    1.5539E-22
  52893.000    1.1215E-22
  52893.070    2.0500E-22
  52893.133    2.3338E-22
  52893.199    2.6176E-22
  52893.262    2.5230E-22
  52893.332    2.2392E-22
  52893.395    1.6558E-22
  52893.457   -1.5449E-23
  52893.520   -5.2897E-24
  52893.582   -9.7633E-23
  52893.648    9.5223E-23
  52893.719    1.8608E-22
  52893.781    1.4824E-22
  52893.844    1.7662E-22
  52893.906    2.0500E-22
  52893.977    1.5770E-22
  52894.043    8.2000E-23
  52894.105    1.4824E-22
  52894.176    2.1699E-22
  52894.238    7.8214E-24
  52894.301   -1.3411E-23
  52894.363    4.3267E-23
  52894.426    5.4109E-23
  52894.492    1.0271E-22
  52894.555    1.8608E-22
  52894.625    1.4824E-22
  52894.688    1.1038E-22
  52894.750    8.2000E-23
  52894.820    6.3077E-24
  52894.883    8.2000E-23
  52894.949    1.2339E-22
  52895.012    5.8698E-25
  52895.082   -1.1640E-23
  52895.145    7.3708E-23
  52895.207    1.2976E-22
  52895.270    1.3117E-22
  52895.332    1.1098E-22
  52895.398    8.7140E-23
  52895.461    3.0883E-23
  52895.531   -3.1211E-24
  52895.594    1.7941E-23
  52895.656   -5.3962E-23
  52895.727   -1.6451E-22
  52895.789   -1.7640E-22
  52895.855   -1.0399E-22
  52895.918   -5.1401E-23
  52895.988    6.2078E-23
  52896.051    1.8398E-22
  52896.113    2.8231E-22
  52896.176    3.5110E-22
  52896.242    3.4352E-22
  52896.305    3.9236E-22
  52896.375    3.2926E-22
  52896.438    1.7453E-22
  52896.500    1.3085E-22
  52896.563    1.8538E-22
  52896.633    2.3468E-22
  52896.699    2.4049E-22
  52896.762    1.4439E-22
  52896.832    9.6488E-23
  52896.895    1.7248E-22
  52896.957    2.5948E-22
  52897.020    3.2129E-22
  52897.082    3.3468E-22
  52897.148    2.6638E-22
  52897.211    2.1950E-22
  52897.281    1.8047E-22
  52897.344    9.8173E-23
  52897.406    1.0358E-22
  52897.477    4.4177E-23
  52897.539   -3.0146E-23
  52897.605   -1.1682E-23
  52897.668    4.2632E-23
  52897.738    1.4045E-22
  52897.801    3.0735E-22
  52897.863    3.1629E-22
  52897.926    2.4234E-22
  52897.988    8.1742E-23
  52898.055    2.4198E-23
  52898.125   -1.0464E-23
  52898.188    1.6278E-23
  52898.250    8.4926E-23
  52898.313    1.7191E-22
  52898.383    2.7371E-22
  52898.449    2.9046E-22
  52898.512    2.3054E-22
  52898.582    1.9427E-22
  52898.645    1.4374E-22
  52898.707    1.3974E-22
  52898.770    1.4719E-22
  52898.832    1.8627E-22
  52898.898    2.2725E-22
  52898.961    3.1059E-22
  52899.031    3.4685E-22
  52899.094    3.3425E-22
  52899.156    3.8607E-22
  52899.227    4.0744E-22
  52899.289    2.8995E-22
  52899.355    2.7660E-22
  52899.418    2.0221E-22
  52899.488    1.6824E-22
  52899.551    1.1421E-22
