 16O2;(9,0);79K;54376-682 cm-1;4435 pts
     WNO          SIGMA  
  54376.117   -0.1016E-21
  54376.186   -0.1016E-21
  54376.254   -0.8450E-22
  54376.323   -0.5343E-22
  54376.391   -0.3264E-22
  54376.460   -0.4317E-22
  54376.529   -0.6409E-22
  54376.597   -0.6763E-22
  54376.666   -0.7809E-22
  54376.734   -0.9541E-22
  54376.803   -0.9550E-22
  54376.871   -0.1059E-21
  54376.940   -0.1197E-21
  54377.008   -0.5772E-22
  54377.077   -0.8979E-23
  54377.145   -0.2044E-23
  54377.214    0.1386E-23
  54377.282   -0.9224E-23
  54377.351   -0.3029E-22
  54377.419   -0.1639E-22
  54377.488    0.8090E-23
  54377.556    0.1505E-22
  54377.625    0.1849E-22
  54377.693    0.2900E-22
  54377.762    0.2539E-22
  54377.831    0.1472E-22
  54377.899    0.7599E-23
  54377.968    0.4858E-24
  54378.036    0.3918E-23
  54378.105    0.1440E-22
  54378.173    0.7272E-23
  54378.242   -0.2437E-22
  54378.310   -0.5581E-22
  54378.379   -0.5241E-22
  54378.447   -0.4206E-22
  54378.516   -0.3866E-22
  54378.584   -0.2478E-22
  54378.653   -0.1086E-22
  54378.721   -0.2844E-22
  54378.790   -0.5291E-22
  54378.858   -0.8071E-22
  54378.927   -0.1118E-21
  54378.996   -0.1153E-21
  54379.064   -0.8441E-22
  54379.133   -0.7926E-23
  54379.201    0.5200E-22
  54379.270    0.7685E-22
  54379.338    0.8034E-22
  54379.407    0.3049E-22
  54379.475    0.3749E-22
  54379.544    0.5159E-22
  54379.612    0.4441E-22
  54379.681    0.4433E-22
  54379.749    0.1948E-22
  54379.818    0.1791E-23
  54379.886   -0.2284E-22
  54379.955   -0.5082E-22
  54380.024   -0.4046E-22
  54380.092   -0.1258E-22
  54380.161    0.4898E-23
  54380.229    0.2244E-22
  54380.298    0.1883E-22
  54380.366   -0.5890E-23
  54380.435   -0.4095E-22
  54380.503   -0.5843E-22
  54380.572   -0.5156E-22
  54380.640   -0.5512E-22
  54380.709   -0.7254E-22
  54380.777   -0.6916E-22
  54380.846   -0.6577E-22
  54380.915   -0.5892E-22
  54380.983   -0.3463E-22
  54381.052   -0.1723E-22
  54381.120   -0.1381E-22
  54381.189   -0.2089E-22
  54381.257   -0.5238E-22
  54381.326   -0.8365E-22
  54381.394   -0.1010E-21
  54381.463   -0.1045E-21
  54381.531   -0.1080E-21
  54381.600   -0.1150E-21
  54381.668   -0.1082E-21
  54381.737   -0.1117E-21
  54381.806   -0.6345E-22
  54381.874   -0.3918E-22
  54381.943   -0.4972E-22
  54382.011   -0.5328E-22
  54382.080   -0.3943E-22
  54382.148   -0.3951E-22
  54382.217   -0.1862E-22
  54382.285    0.5880E-23
  54382.354    0.3051E-22
  54382.422    0.1629E-22
  54382.491    0.2681E-22
  54382.560    0.1613E-22
  54382.628    0.8992E-23
  54382.697    0.1596E-22
  54382.765    0.2294E-22
  54382.834    0.2286E-22
  54382.902   -0.5408E-23
  54382.971   -0.1251E-22
  54383.039    0.1459E-23
  54383.108    0.2607E-22
  54383.176    0.4015E-22
  54383.245    0.4007E-22
  54383.314    0.3644E-22
  54383.382    0.1514E-22
  54383.451    0.9677E-24
  54383.519   -0.1317E-22
  54383.588   -0.1325E-22
  54383.656    0.7220E-24
  54383.725    0.1826E-22
  54383.793    0.2525E-22
  54383.862    0.1810E-22
  54383.930   -0.1366E-22
  54383.999   -0.1725E-22
  54384.068    0.2304E-24
  54384.136    0.3901E-22
  54384.205    0.5313E-22
  54384.273    0.3530E-22
  54384.342    0.3422E-23
  54384.410   -0.2124E-22
  54384.479   -0.2833E-22
  54384.547   -0.2141E-22
  54384.616   -0.2849E-22
  54384.684   -0.4254E-22
  54384.753   -0.4959E-22
  54384.822   -0.2524E-22
  54384.890   -0.1481E-22
  54384.959    0.6207E-23
  54385.027   -0.7948E-23
  54385.096   -0.4652E-22
  54385.164   -0.6052E-22
  54385.233   -0.4320E-22
  54385.301   -0.2231E-22
  54385.370   -0.4844E-23
  54385.439    0.1975E-22
  54385.507    0.6583E-22
  54385.576    0.8004E-22
  54385.644    0.6566E-22
  54385.713    0.3712E-22
  54385.781    0.1228E-22
  54385.850   -0.3346E-22
  54385.918   -0.7530E-22
  54385.987   -0.8922E-22
  54386.056   -0.7893E-22
  54386.124   -0.4426E-22
  54386.193    0.1209E-23
  54386.261    0.3647E-22
  54386.330    0.5415E-22
  54386.398    0.6119E-22
  54386.467    0.2913E-22
  54386.535   -0.2720E-23
  54386.604   -0.3436E-22
  54386.673   -0.6580E-22
  54386.741   -0.7629E-22
  54386.810   -0.6596E-22
  54386.878   -0.2769E-22
  54386.947    0.3074E-24
  54387.015   -0.6811E-23
  54387.084    0.7190E-23
  54387.152    0.3540E-22
  54387.221    0.4953E-22
  54387.290    0.4944E-22
  54387.358    0.3515E-22
  54387.427   -0.3786E-23
  54387.495   -0.3193E-22
  54387.564   -0.3551E-22
  54387.632   -0.2860E-22
  54387.701    0.2927E-23
  54387.770    0.2049E-22
  54387.838    0.2041E-22
  54387.907    0.6206E-23
  54387.975    0.6124E-23
  54388.044    0.6042E-23
  54388.112    0.2362E-22
  54388.181    0.3417E-22
  54388.249   -0.1251E-23
  54388.318   -0.1890E-22
  54388.387   -0.5394E-22
  54388.455   -0.7487E-22
  54388.524   -0.5758E-22
  54388.592   -0.3674E-22
  54388.661   -0.1581E-22
  54388.729    0.1228E-22
  54388.798    0.2989E-22
  54388.867    0.3690E-22
  54388.935    0.2972E-22
  54389.004    0.1902E-22
  54389.072    0.1540E-22
  54389.141    0.1885E-22
  54389.209    0.2939E-22
  54389.278    0.4707E-22
  54389.346    0.6837E-22
  54389.415    0.6115E-22
  54389.484    0.1491E-22
  54389.552   -0.3089E-22
  54389.621   -0.5193E-22
  54389.689   -0.4504E-22
  54389.758   -0.1712E-22
  54389.826    0.2511E-22
  54389.895    0.6415E-22
  54389.964    0.7837E-22
  54390.032    0.7471E-22
  54390.101    0.2833E-22
  54390.169   -0.3163E-22
  54390.238   -0.2821E-22
  54390.306   -0.1426E-22
  54390.375   -0.7314E-23
  54390.444    0.6698E-23
  54390.512    0.2075E-22
  54390.581    0.2775E-22
  54390.649    0.6452E-23
  54390.718   -0.2879E-22
  54390.786   -0.7419E-22
  54390.855   -0.9505E-22
  54390.924   -0.6046E-22
  54390.992   -0.5357E-22
  54391.061   -0.4668E-22
  54391.129   -0.4676E-22
  54391.198   -0.5033E-22
  54391.266   -0.5042E-22
  54391.335   -0.6095E-22
  54391.404   -0.5755E-22
  54391.472   -0.3669E-22
  54391.541   -0.2276E-22
  54391.609   -0.4385E-22
  54391.678   -0.7179E-22
  54391.746   -0.6840E-22
  54391.815   -0.6848E-22
  54391.884   -0.5464E-22
  54391.952   -0.2676E-22
  54392.021   -0.5764E-23
  54392.089    0.1533E-22
  54392.158    0.1878E-22
  54392.226    0.1163E-22
  54392.295    0.1154E-22
  54392.364   -0.2024E-22
  54392.432   -0.3084E-22
  54392.501    0.7081E-24
  54392.569    0.4153E-23
  54392.638   -0.2981E-23
  54392.706    0.4618E-24
  54392.775    0.1804E-22
  54392.844    0.3214E-22
  54392.912    0.2154E-24
  54392.981   -0.4549E-22
  54393.049   -0.5604E-22
  54393.118   -0.4216E-22
  54393.187   -0.2473E-22
  54393.255   -0.1952E-24
  54393.324   -0.3802E-23
  54393.392    0.3168E-23
  54393.461    0.4562E-22
  54393.529    0.5623E-22
  54393.598    0.6329E-22
  54393.667    0.5963E-22
  54393.735    0.6670E-22
  54393.804    0.7735E-22
  54393.872    0.5582E-22
  54393.941    0.3793E-22
  54394.009    0.6994E-22
  54394.078    0.9138E-22
  54394.147    0.8771E-22
  54394.215    0.6255E-22
  54394.284    0.1978E-22
  54394.352   -0.3664E-22
  54394.421   -0.7507E-22
  54394.490   -0.8556E-22
  54394.558   -0.7524E-22
  54394.627   -0.6837E-22
  54394.695   -0.5452E-22
  54394.764   -0.3013E-22
  54394.832   -0.3371E-22
  54394.901   -0.2328E-22
  54394.970   -0.2687E-22
  54395.038   -0.4446E-22
  54395.107   -0.6547E-22
  54395.175   -0.5510E-22
  54395.244   -0.3771E-22
  54395.313   -0.4828E-22
  54395.381   -0.5883E-22
  54395.450   -0.8324E-22
  54395.518   -0.9026E-22
  54395.587   -0.7994E-22
  54395.655   -0.7655E-22
  54395.724   -0.3478E-22
  54395.793    0.7355E-23
  54395.861    0.1081E-22
  54395.930    0.1780E-22
  54395.998    0.1418E-22
  54396.067   -0.1061E-22
  54396.136   -0.1069E-22
  54396.204   -0.3728E-23
  54396.273    0.1739E-22
  54396.341    0.1731E-22
  54396.410   -0.2157E-22
  54396.479   -0.3569E-22
  54396.547   -0.7663E-23
  54396.616    0.1344E-22
  54396.684    0.2399E-22
  54396.753    0.2745E-22
  54396.821    0.4872E-22
  54396.890    0.7724E-22
  54396.959    0.8434E-22
  54397.027    0.8785E-22
  54397.096    0.8417E-22
  54397.164    0.8409E-22
  54397.233    0.7683E-22
  54397.302    0.4102E-22
  54397.370   -0.5125E-23
  54397.439   -0.2632E-22
  54397.507    0.1768E-23
  54397.576    0.2647E-22
  54397.645    0.2284E-22
  54397.713   -0.2313E-22
  54397.782   -0.8257E-22
  54397.850   -0.1172E-21
  54397.919   -0.1242E-21
  54397.988   -0.1139E-21
  54398.056   -0.1002E-21
  54398.125   -0.5514E-22
  54398.193   -0.2584E-23
  54398.262    0.3631E-22
  54398.331    0.5761E-22
  54398.399    0.5753E-22
  54398.468    0.8612E-22
  54398.536    0.1077E-21
  54398.605    0.8596E-22
  54398.674    0.8228E-22
  54398.742    0.6427E-22
  54398.811    0.3921E-22
  54398.879    0.1781E-22
  54398.948    0.1773E-22
  54399.017    0.1765E-22
  54399.085    0.2111E-22
  54399.154    0.1040E-22
  54399.222    0.1740E-22
  54399.291    0.3152E-22
  54399.359    0.3499E-22
  54399.428    0.3135E-22
  54399.497    0.3127E-22
  54399.565    0.2053E-22
  54399.634    0.2751E-23
  54399.702   -0.1497E-22
  54399.771   -0.8003E-23
  54399.840   -0.1028E-23
  54399.908   -0.1111E-23
  54399.977    0.1650E-22
  54400.045    0.3417E-22
  54400.114    0.1633E-22
  54400.183   -0.1906E-22
  54400.251   -0.5071E-22
  54400.320   -0.6823E-22
  54400.388   -0.2985E-22
  54400.457    0.1764E-23
  54400.526    0.2293E-22
  54400.594    0.4776E-22
  54400.663    0.5125E-22
  54400.732    0.4403E-22
  54400.800    0.5823E-22
  54400.869    0.9044E-22
  54400.937    0.8316E-22
  54401.006    0.7589E-22
  54401.075    0.5432E-22
  54401.143    0.1864E-22
  54401.212   -0.3084E-22
  54401.280   -0.5893E-22
  54401.349   -0.6947E-22
  54401.418   -0.8693E-22
  54401.486   -0.8354E-22
  54401.555   -0.1044E-21
  54401.623   -0.1045E-21
  54401.692   -0.8379E-22
  54401.761   -0.8040E-22
  54401.829   -0.8048E-22
  54401.898   -0.6664E-22
  54401.966   -0.5975E-22
  54402.035   -0.4235E-22
  54402.104   -0.2840E-22
  54402.172   -0.3901E-22
  54402.241   -0.3558E-22
  54402.309    0.1724E-22
  54402.378    0.3137E-22
  54402.447    0.2063E-22
  54402.515    0.2054E-22
  54402.584    0.3112E-22
  54402.652    0.7751E-22
  54402.721    0.1244E-21
  54402.790    0.1717E-21
  54402.858    0.1826E-21
  54402.927    0.1605E-21
  54402.996    0.1132E-21
  54403.064    0.1058E-21
  54403.133    0.1239E-21
  54403.201    0.1456E-21
  54403.270    0.1638E-21
  54403.339    0.1600E-21
  54403.407    0.1417E-21
  54403.476    0.1307E-21
  54403.544    0.1343E-21
  54403.613    0.1342E-21
  54403.682    0.1560E-21
  54403.750    0.1962E-21
  54403.819    0.2480E-21
  54403.887    0.2740E-21
  54403.956    0.2964E-21
  54404.025    0.3001E-21
  54404.093    0.2925E-21
  54404.162    0.3037E-21
  54404.231    0.3643E-21
  54404.299    0.4800E-21
  54404.368    0.5786E-21
  54404.436    0.6793E-21
  54404.505    0.7739E-21
  54404.574    0.8281E-21
  54404.642    0.8575E-21
  54404.711    0.8786E-21
  54404.779    0.8998E-21
  54404.848    0.9168E-21
  54404.917    0.9511E-21
  54404.985    0.9381E-21
  54405.054    0.8995E-21
  54405.123    0.8909E-21
  54405.191    0.8738E-21
  54405.260    0.8652E-21
  54405.328    0.8230E-21
  54405.397    0.7645E-21
  54405.466    0.7313E-21
  54405.534    0.7107E-21
  54405.603    0.6779E-21
  54405.672    0.6252E-21
  54405.740    0.5890E-21
  54405.809    0.5610E-21
  54405.877    0.5253E-21
  54405.946    0.5016E-21
  54406.015    0.4624E-21
  54406.083    0.4196E-21
  54406.152    0.3696E-21
  54406.220    0.3619E-21
  54406.289    0.3542E-21
  54406.358    0.3389E-21
  54406.426    0.3426E-21
  54406.495    0.3312E-21
  54406.564    0.3159E-21
  54406.632    0.3272E-21
  54406.701    0.3158E-21
  54406.769    0.2631E-21
  54406.838    0.1815E-21
  54406.907    0.1085E-21
  54406.975    0.8311E-22
  54407.044    0.6865E-22
  54407.113    0.6139E-22
  54407.181    0.6848E-22
  54407.250    0.7199E-22
  54407.318    0.5756E-22
  54407.387    0.5748E-22
  54407.456    0.7174E-22
  54407.524    0.7525E-22
  54407.593    0.5365E-22
  54407.662    0.2503E-22
  54407.730    0.4634E-22
  54407.799    0.4983E-22
  54407.867    0.4975E-22
  54407.936    0.9277E-22
  54408.005    0.1108E-21
  54408.073    0.1179E-21
  54408.142    0.1034E-21
  54408.211    0.6725E-22
  54408.279    0.4925E-22
  54408.348    0.4917E-22
  54408.416    0.3480E-22
  54408.485    0.3829E-22
  54408.554    0.4535E-22
  54408.622    0.3099E-22
  54408.691    0.4161E-22
  54408.760    0.7018E-22
  54408.828    0.9892E-22
  54408.897    0.1133E-21
  54408.965    0.1132E-21
  54409.034    0.9506E-22
  54409.103    0.8055E-22
  54409.171    0.7328E-22
  54409.240    0.7679E-22
  54409.309    0.6234E-22
  54409.377    0.7663E-22
  54409.446    0.6935E-22
  54409.515    0.5134E-22
  54409.583    0.6201E-22
  54409.652    0.7630E-22
  54409.720    0.9423E-22
  54409.789    0.1014E-21
  54409.858    0.9768E-22
  54409.926    0.7956E-22
  54409.995    0.5435E-22
  54410.064    0.4353E-22
  54410.132    0.1850E-22
  54410.201    0.1487E-22
  54410.269    0.2901E-22
  54410.338    0.5394E-22
  54410.407    0.8980E-22
  54410.475    0.1078E-21
  54410.544    0.1150E-21
  54410.613    0.1440E-21
  54410.681    0.1622E-21
  54410.750    0.1658E-21
  54410.819    0.1767E-21
  54410.887    0.1987E-21
  54410.956    0.2208E-21
  54411.024    0.2170E-21
  54411.093    0.2095E-21
  54411.162    0.1836E-21
  54411.230    0.1835E-21
  54411.299    0.1908E-21
  54411.368    0.1834E-21
  54411.436    0.1980E-21
  54411.505    0.2425E-21
  54411.574    0.2760E-21
  54411.642    0.2947E-21
  54411.711    0.3060E-21
  54411.779    0.3134E-21
  54411.848    0.3096E-21
  54411.917    0.3095E-21
  54411.985    0.3321E-21
  54412.054    0.3893E-21
  54412.123    0.4356E-21
  54412.191    0.4823E-21
  54412.260    0.5176E-21
  54412.329    0.5611E-21
  54412.397    0.6010E-21
  54412.466    0.6130E-21
  54412.535    0.6210E-21
  54412.603    0.6411E-21
  54412.672    0.6735E-21
  54412.740    0.6939E-21
  54412.809    0.7764E-21
  54412.878    0.8476E-21
  54412.946    0.9028E-21
  54413.015    0.9716E-21
  54413.084    0.1086E-20
  54413.152    0.1216E-20
  54413.221    0.1364E-20
  54413.290    0.1547E-20
  54413.358    0.1772E-20
  54413.427    0.2041E-20
  54413.496    0.2343E-20
  54413.564    0.2721E-20
  54413.633    0.3145E-20
  54413.701    0.3617E-20
  54413.770    0.3893E-20
  54413.839    0.4433E-20
  54413.907    0.4797E-20
  54413.976    0.5054E-20
  54414.045    0.5190E-20
  54414.113    0.5260E-20
  54414.182    0.5249E-20
  54414.251    0.5154E-20
  54414.319    0.5022E-20
  54414.388    0.4886E-20
  54414.457    0.4692E-20
  54414.525    0.4423E-20
  54414.594    0.4112E-20
  54414.663    0.3897E-20
  54414.731    0.3730E-20
  54414.800    0.3539E-20
  54414.868    0.3205E-20
  54414.937    0.2982E-20
  54415.006    0.2750E-20
  54415.074    0.2547E-20
  54415.143    0.2335E-20
  54415.212    0.2131E-20
  54415.280    0.1894E-20
  54415.349    0.1628E-20
  54415.418    0.1433E-20
  54415.486    0.1273E-20
  54415.555    0.1127E-20
  54415.624    0.1016E-20
  54415.692    0.9166E-21
  54415.761    0.8104E-21
  54415.830    0.7148E-21
  54415.898    0.6412E-21
  54415.967    0.6209E-21
  54416.036    0.6168E-21
  54416.104    0.5885E-21
  54416.173    0.5406E-21
  54416.241    0.4970E-21
  54416.310    0.4578E-21
  54416.379    0.4111E-21
  54416.447    0.3764E-21
  54416.516    0.3878E-21
  54416.585    0.3954E-21
  54416.653    0.3954E-21
  54416.722    0.3761E-21
  54416.791    0.3188E-21
  54416.859    0.2622E-21
  54416.928    0.2099E-21
  54416.997    0.1914E-21
  54417.065    0.1950E-21
  54417.134    0.1875E-21
  54417.203    0.1580E-21
  54417.271    0.1726E-21
  54417.340    0.1799E-21
  54417.409    0.1835E-21
  54417.477    0.1834E-21
  54417.546    0.1760E-21
  54417.615    0.1612E-21
  54417.683    0.1538E-21
  54417.752    0.1500E-21
  54417.821    0.1244E-21
  54417.889    0.8080E-22
  54417.958    0.6991E-22
  54418.027    0.9871E-22
  54418.095    0.1168E-21
  54418.164    0.1058E-21
  54418.233    0.8039E-22
  54418.301    0.9114E-22
  54418.370    0.1274E-21
  54418.439    0.1091E-21
  54418.507    0.8367E-22
  54418.576    0.5478E-22
  54418.644    0.4037E-22
  54418.713    0.5103E-22
  54418.782    0.2948E-22
  54418.850    0.4465E-23
  54418.919    0.1149E-22
  54418.988    0.4353E-22
  54419.056    0.3629E-22
  54419.125    0.4337E-22
  54419.194    0.6842E-22
  54419.262    0.7554E-22
  54419.331    0.6465E-22
  54419.400    0.4662E-22
  54419.468    0.6809E-22
  54419.537    0.6441E-22
  54419.606    0.3921E-22
  54419.674    0.1770E-22
  54419.743    0.3189E-22
  54419.812    0.7488E-22
  54419.880    0.6040E-22
  54419.949    0.1025E-22
  54420.018    0.3060E-23
  54420.086    0.6530E-23
  54420.155   -0.6566E-24
  54420.224    0.1348E-22
  54420.292    0.2729E-23
  54420.361   -0.9046E-24
  54420.430   -0.1516E-22
  54420.498   -0.4699E-22
  54420.567   -0.3299E-22
  54420.636    0.1654E-22
  54420.704    0.5940E-22
  54420.773    0.6652E-22
  54420.842    0.4488E-22
  54420.910    0.3049E-22
  54420.979    0.1970E-22
  54421.048    0.4105E-22
  54421.116    0.8775E-22
  54421.185    0.9129E-22
  54421.254    0.1021E-21
  54421.322    0.1056E-21
  54421.391    0.3706E-22
  54421.460    0.1199E-22
  54421.528    0.1240E-23
  54421.597    0.1895E-22
  54421.666    0.4031E-22
  54421.734    0.2235E-22
  54421.803    0.4463E-23
  54421.872    0.8268E-24
  54421.940    0.4297E-23
  54422.009    0.7771E-23
  54422.078    0.2194E-22
  54422.146    0.3257E-22
  54422.215    0.5759E-22
  54422.284    0.6830E-22
  54422.353    0.4665E-22
  54422.421    0.1796E-22
  54422.490   -0.1056E-22
  54422.559   -0.1773E-22
  54422.627   -0.8313E-25
  54422.696   -0.1659E-24
  54422.765    0.6861E-23
  54422.833    0.4248E-22
  54422.902    0.7837E-22
  54422.971    0.9276E-22
  54423.039    0.9992E-22
  54423.108    0.8897E-22
  54423.177    0.7443E-22
  54423.245    0.2767E-22
  54423.314   -0.1864E-22
  54423.383   -0.2933E-22
  54423.451   -0.1880E-22
  54423.520    0.2020E-22
  54423.589    0.6673E-22
  54423.657    0.1173E-21
  54423.726    0.1538E-21
  54423.795    0.1427E-21
  54423.863    0.1207E-21
  54423.932    0.1097E-21
  54424.001    0.9876E-22
  54424.069    0.9143E-22
  54424.138    0.9497E-22
  54424.207    0.9127E-22
  54424.275    0.9118E-22
  54424.344    0.9110E-22
  54424.413    0.8017E-22
  54424.481    0.8370E-22
  54424.550    0.1090E-21
  54424.619    0.1235E-21
  54424.688    0.1343E-21
  54424.756    0.1636E-21
  54424.825    0.1746E-21
  54424.894    0.1671E-21
  54424.962    0.1450E-21
  54425.031    0.1048E-21
  54425.100    0.6491E-22
  54425.168    0.4326E-22
  54425.237    0.5394E-22
  54425.306    0.6106E-22
  54425.374    0.8986E-22
  54425.443    0.1152E-21
  54425.512    0.9332E-22
  54425.580    0.4994E-22
  54425.649    0.1764E-22
  54425.718    0.3302E-23
  54425.786    0.2819E-22
  54425.855    0.5680E-22
  54425.924    0.4952E-22
  54425.993    0.4226E-22
  54426.061    0.6015E-22
  54426.130    0.7810E-22
  54426.199    0.8525E-22
  54426.267    0.1142E-21
  54426.336    0.1178E-21
  54426.405    0.1104E-21
  54426.473    0.9216E-22
  54426.542    0.7399E-22
  54426.611    0.6308E-22
  54426.679    0.5580E-22
  54426.748    0.2703E-22
  54426.817    0.9097E-23
  54426.885    0.9014E-23
  54426.954   -0.1594E-22
  54427.023   -0.4782E-22
  54427.091   -0.3026E-22
  54427.160    0.8683E-23
  54427.229    0.3002E-22
  54427.298    0.5506E-22
  54427.366    0.8022E-22
  54427.435    0.7291E-22
  54427.504    0.5481E-22
  54427.572    0.2961E-22
  54427.641    0.2237E-22
  54427.710    0.8020E-23
  54427.778    0.7938E-23
  54427.847    0.2570E-22
  54427.916    0.2562E-22
  54427.984    0.4345E-22
  54428.053    0.6495E-22
  54428.122    0.8655E-22
  54428.191    0.8646E-22
  54428.259    0.9000E-22
  54428.328    0.7545E-22
  54428.397    0.7175E-22
  54428.465    0.1152E-21
  54428.534    0.1334E-21
  54428.603    0.1296E-21
