 16O2;(10,0);79K;54750-5100 cm-1;4989 pts
     WNO          SIGMA 
  54750.031   -0.8948E-23
  54750.100   -0.1184E-22
  54750.170   -0.4695E-23
  54750.240   -0.6157E-23
  54750.309   -0.1335E-22
  54750.379   -0.2477E-22
  54750.449   -0.4173E-22
  54750.519   -0.5713E-22
  54750.588   -0.5437E-22
  54750.658   -0.5579E-22
  54750.728   -0.4884E-22
  54750.798   -0.3624E-22
  54750.867   -0.1784E-22
  54750.937   -0.7853E-23
  54751.007   -0.7879E-23
  54751.076   -0.5033E-23
  54751.146   -0.7931E-23
  54751.216    0.6739E-24
  54751.286    0.1078E-22
  54751.355    0.1657E-22
  54751.425    0.1072E-22
  54751.495    0.2013E-23
  54751.565    0.1987E-23
  54751.634    0.6298E-23
  54751.704    0.9170E-23
  54751.774    0.3353E-23
  54751.843    0.4773E-23
  54751.913    0.3301E-23
  54751.983   -0.2494E-23
  54752.053   -0.1114E-22
  54752.122   -0.1259E-22
  54752.192   -0.1833E-22
  54752.262   -0.1978E-22
  54752.332   -0.1696E-22
  54752.401   -0.4090E-23
  54752.471    0.3093E-23
  54752.541    0.7408E-23
  54752.611    0.1319E-22
  54752.680    0.1171E-22
  54752.750    0.2989E-23
  54752.820   -0.5684E-23
  54752.889   -0.1431E-22
  54752.959   -0.1434E-22
  54753.029   -0.1444E-23
  54753.099    0.1737E-22
  54753.168    0.2173E-22
  54753.238    0.2463E-22
  54753.308    0.1876E-22
  54753.378    0.9996E-23
  54753.447   -0.3041E-23
  54753.517   -0.1454E-22
  54753.587   -0.1314E-22
  54753.657   -0.4558E-23
  54753.726   -0.8894E-23
  54753.796   -0.1322E-22
  54753.866   -0.1324E-22
  54753.936   -0.1756E-22
  54754.005   -0.1186E-22
  54754.075   -0.1046E-22
  54754.145   -0.9050E-23
  54754.215   -0.1051E-22
  54754.284   -0.7667E-23
  54754.354   -0.1056E-22
  54754.424   -0.6282E-23
  54754.493   -0.5495E-24
  54754.563   -0.5755E-24
  54754.633    0.2286E-23
  54754.703    0.8050E-23
  54754.772    0.1967E-22
  54754.842    0.2550E-22
  54754.912    0.2841E-22
  54754.982    0.3279E-22
  54755.051    0.4906E-22
  54755.121    0.6098E-22
  54755.191    0.4900E-22
  54755.261    0.1803E-22
  54755.330   -0.1236E-22
  54755.400   -0.2522E-22
  54755.470   -0.1670E-22
  54755.540   -0.5261E-23
  54755.609   -0.6725E-23
  54755.679   -0.1106E-22
  54755.749   -0.9649E-23
  54755.819   -0.6803E-23
  54755.888   -0.3952E-23
  54755.958    0.3467E-24
  54756.028   -0.1122E-23
  54756.098   -0.2590E-23
  54756.167   -0.4057E-23
  54756.237   -0.8396E-23
  54756.307   -0.1227E-23
  54756.377    0.1615E-22
  54756.446    0.2343E-22
  54756.516    0.1902E-22
  54756.586    0.1461E-22
  54756.656    0.8615E-25
  54756.725   -0.1145E-22
  54756.795   -0.2147E-22
  54756.865   -0.2435E-22
  54756.935   -0.1296E-22
  54757.004   -0.4412E-25
  54757.074    0.1881E-22
  54757.144    0.1732E-22
  54757.214    0.8563E-23
  54757.283    0.4189E-23
  54757.353   -0.1617E-23
  54757.423   -0.2005E-24
  54757.493    0.9912E-23
  54757.562    0.1863E-22
  54757.632    0.1860E-22
  54757.702    0.8381E-23
  54757.772   -0.7533E-23
  54757.842   -0.1901E-22
  54757.911   -0.3041E-22
  54757.981   -0.3610E-22
  54758.051   -0.2194E-22
  54758.121    0.2429E-23
  54758.190    0.2718E-22
  54758.260    0.4488E-22
  54758.330    0.5529E-22
  54758.400    0.4632E-22
  54758.469    0.2561E-22
  54758.539    0.1097E-22
  54758.609    0.9495E-23
  54758.679    0.1675E-22
  54758.748    0.2844E-22
  54758.818    0.3874E-22
  54758.888    0.2986E-22
  54758.958    0.2249E-22
  54759.027    0.9338E-23
  54759.097   -0.2269E-23
  54759.167   -0.8054E-23
  54759.237   -0.1382E-22
  54759.306   -0.1384E-22
  54759.376   -0.1673E-22
  54759.446   -0.9563E-24
  54759.516    0.4803E-23
  54759.586    0.1058E-22
  54759.655    0.1201E-22
  54759.725    0.1636E-22
  54759.795    0.1779E-22
  54759.865    0.1923E-22
  54759.934    0.1920E-22
  54760.004    0.6070E-23
  54760.074   -0.5516E-23
  54760.144   -0.1272E-22
  54760.213   -0.8445E-23
  54760.283    0.3068E-23
  54760.353    0.1321E-22
  54760.423    0.4464E-23
  54760.493   -0.4232E-23
  54760.562   -0.8575E-23
  54760.632   -0.5725E-23
  54760.702   -0.2869E-23
  54760.772   -0.7350E-26
  54760.841   -0.2921E-23
  54760.911   -0.2947E-23
  54760.981    0.1360E-23
  54761.051    0.4229E-23
  54761.120    0.1146E-22
  54761.190   -0.1608E-23
  54761.260   -0.2599E-22
  54761.330   -0.3594E-22
  54761.400   -0.4442E-22
  54761.469   -0.4444E-22
  54761.539   -0.3035E-22
  54761.609   -0.1899E-22
  54761.679   -0.1473E-22
  54761.748   -0.3260E-23
  54761.818    0.8295E-23
  54761.888    0.1118E-22
  54761.958   -0.4507E-24
  54762.028   -0.1915E-22
  54762.097   -0.2914E-22
  54762.167   -0.3484E-22
  54762.237   -0.4051E-22
  54762.307   -0.4053E-22
  54762.376   -0.4338E-22
  54762.446   -0.3918E-22
  54762.516   -0.2788E-22
  54762.586   -0.1364E-22
  54762.656    0.9436E-23
  54762.725    0.2402E-22
  54762.795    0.3430E-22
  54762.865    0.3575E-22
  54762.935    0.2394E-22
  54763.004    0.1513E-22
  54763.074    0.6373E-23
  54763.144   -0.8942E-24
  54763.214    0.6321E-23
  54763.284    0.7747E-23
  54763.353    0.1646E-22
  54763.423    0.1352E-22
  54763.493    0.3316E-23
  54763.563    0.3949E-24
  54763.632    0.6165E-23
  54763.702    0.6138E-23
  54763.772    0.3212E-23
  54763.842    0.6086E-23
  54763.912    0.7512E-23
  54763.981    0.1185E-22
  54764.051    0.1620E-22
  54764.121    0.2203E-22
  54764.191    0.2200E-22
  54764.260    0.2491E-22
  54764.330    0.3225E-22
  54764.400    0.3222E-22
  54764.470    0.3811E-22
  54764.540    0.4254E-22
  54764.609    0.4548E-22
  54764.679    0.4100E-22
  54764.749    0.3505E-22
  54764.819    0.4392E-22
  54764.889    0.5883E-22
  54764.958    0.7389E-22
  54765.028    0.8909E-22
  54765.098    0.9519E-22
  54765.168    0.1106E-21
  54765.238    0.1324E-21
  54765.307    0.1626E-21
  54765.377    0.1966E-21
  54765.447    0.2080E-21
  54765.517    0.2047E-21
  54765.586    0.1932E-21
  54765.656    0.1883E-21
  54765.726    0.1753E-21
  54765.796    0.1624E-21
  54765.866    0.1592E-21
  54765.935    0.1559E-21
  54766.005    0.1623E-21
  54766.075    0.1607E-21
  54766.145    0.1495E-21
  54766.215    0.1368E-21
  54766.284    0.1226E-21
  54766.354    0.1179E-21
  54766.424    0.1226E-21
  54766.494    0.1273E-21
  54766.564    0.1178E-21
  54766.633    0.1194E-21
  54766.703    0.1335E-21
  54766.773    0.1287E-21
  54766.843    0.1224E-21
  54766.913    0.1115E-21
  54766.982    0.1068E-21
  54767.052    0.1006E-21
  54767.122    0.9137E-22
  54767.192    0.7154E-22
  54767.262    0.6396E-22
  54767.331    0.6243E-22
  54767.401    0.6391E-22
  54767.471    0.6087E-22
  54767.541    0.5185E-22
  54767.611    0.3990E-22
  54767.680    0.3247E-22
  54767.750    0.3097E-22
  54767.820    0.3242E-22
  54767.890    0.3387E-22
  54767.960    0.3237E-22
  54768.029    0.2497E-22
  54768.099    0.2348E-22
  54768.169    0.3081E-22
  54768.239    0.3522E-22
  54768.309    0.3520E-22
  54768.378    0.3665E-22
  54768.448    0.3071E-22
  54768.518    0.1746E-22
  54768.588    0.1159E-22
  54768.658    0.2834E-23
  54768.727   -0.7312E-23
  54768.797   -0.1309E-22
  54768.867   -0.1024E-22
  54768.937    0.4180E-23
  54769.007    0.2020E-22
  54769.076    0.3787E-22
  54769.146    0.4826E-22
  54769.216    0.3930E-22
  54769.286    0.3779E-22
  54769.356    0.3925E-22
  54769.425    0.2739E-22
  54769.495    0.1270E-22
  54769.565   -0.4741E-23
  54769.635   -0.1484E-22
  54769.705   -0.4562E-24
  54769.774    0.1845E-22
  54769.844    0.3610E-22
  54769.914    0.4053E-22
  54769.984    0.4199E-22
  54770.054    0.4792E-22
  54770.124    0.4342E-22
  54770.193    0.3301E-22
  54770.263    0.2267E-22
  54770.333    0.1678E-22
  54770.403    0.1383E-22
  54770.473    0.1380E-22
  54770.542    0.1670E-22
  54770.612    0.9370E-23
  54770.682    0.6433E-23
  54770.752    0.2050E-23
  54770.822   -0.3767E-23
  54770.891    0.5478E-24
  54770.961    0.1216E-22
  54771.031    0.1213E-22
  54771.101    0.4822E-23
  54771.171    0.1893E-23
  54771.241   -0.6811E-23
  54771.310   -0.1403E-22
  54771.380   -0.8305E-23
  54771.450   -0.5447E-23
  54771.520   -0.5473E-23
  54771.590   -0.5499E-23
  54771.659    0.2602E-24
  54771.729    0.1479E-22
  54771.799    0.1476E-22
  54771.869    0.1620E-22
  54771.939    0.1471E-22
  54772.009    0.2348E-22
  54772.078    0.3083E-22
  54772.148    0.3376E-22
  54772.218    0.3225E-22
  54772.288    0.2927E-22
  54772.358    0.3516E-22
  54772.427    0.4703E-22
  54772.497    0.5298E-22
  54772.567    0.5296E-22
  54772.637    0.4844E-22
  54772.707    0.3503E-22
  54772.777    0.2320E-22
  54772.846    0.2464E-22
  54772.916    0.2609E-22
  54772.986    0.2165E-22
  54773.056    0.1187E-23
  54773.126   -0.3184E-23
  54773.196   -0.1763E-23
  54773.265    0.2559E-23
  54773.335    0.1273E-22
  54773.405    0.2443E-22
  54773.475    0.4068E-22
  54773.545    0.4214E-22
  54773.614    0.2877E-22
  54773.684    0.1699E-22
  54773.754    0.2136E-22
  54773.824    0.3313E-22
  54773.894    0.3458E-22
  54773.964    0.3752E-22
  54774.033    0.3305E-22
  54774.103    0.2417E-22
  54774.173    0.1387E-22
  54774.243    0.5099E-23
  54774.313    0.1382E-22
  54774.383    0.2259E-22
  54774.452    0.2110E-22
  54774.522    0.7905E-23
  54774.592    0.7879E-23
  54774.662    0.5852E-24
  54774.732   -0.5231E-23
  54774.802    0.6345E-23
  54774.871    0.1801E-22
  54774.941    0.1798E-22
  54775.011    0.1356E-22
  54775.081    0.6240E-23
  54775.151    0.3305E-23
  54775.221    0.4733E-23
  54775.290    0.1638E-22
  54775.360    0.3108E-22
  54775.430    0.3253E-22
  54775.500    0.2365E-22
  54775.570    0.1043E-22
  54775.640   -0.2679E-23
  54775.709   -0.1855E-22
  54775.779   -0.1571E-22
  54775.849   -0.8537E-23
  54775.919   -0.5676E-23
  54775.989    0.2991E-23
  54776.059    0.1903E-22
  54776.128    0.2341E-22
  54776.198    0.2633E-22
  54776.268    0.2631E-22
  54776.338    0.2039E-22
  54776.408    0.3068E-22
  54776.478    0.4402E-22
  54776.547    0.4549E-22
  54776.617    0.4248E-22
  54776.687    0.4842E-22
  54776.757    0.6493E-22
  54776.827    0.7096E-22
  54776.897    0.6639E-22
  54776.966    0.7242E-22
  54777.036    0.8459E-22
  54777.106    0.8609E-22
  54777.176    0.7691E-22
  54777.246    0.6173E-22
  54777.316    0.5118E-22
  54777.386    0.5716E-22
  54777.455    0.6618E-22
  54777.525    0.6012E-22
  54777.595    0.6311E-22
  54777.665    0.6308E-22
  54777.735    0.6154E-22
  54777.805    0.5700E-22
  54777.874    0.5998E-22
  54777.944    0.7054E-22
  54778.014    0.7051E-22
  54778.084    0.7049E-22
  54778.154    0.6743E-22
  54778.224    0.7044E-22
  54778.293    0.8106E-22
  54778.363    0.9330E-22
  54778.433    0.9327E-22
  54778.503    0.9787E-22
  54778.573    0.1071E-21
  54778.643    0.1211E-21
  54778.713    0.1464E-21
  54778.782    0.1591E-21
  54778.852    0.1736E-21
  54778.922    0.1915E-21
  54778.992    0.1997E-21
  54779.062    0.2112E-21
  54779.132    0.2312E-21
  54779.202    0.2514E-21
  54779.271    0.2771E-21
  54779.341    0.3156E-21
  54779.411    0.3532E-21
  54779.481    0.4010E-21
  54779.551    0.4542E-21
  54779.621    0.5092E-21
  54779.690    0.5849E-21
  54779.760    0.6822E-21
  54779.830    0.7811E-21
  54779.900    0.7963E-21
  54779.970    0.8823E-21
  54780.040    0.9748E-21
  54780.110    0.1068E-20
  54780.179    0.1134E-20
  54780.249    0.1163E-20
  54780.319    0.1161E-20
  54780.389    0.1134E-20
  54780.459    0.1116E-20
  54780.529    0.1113E-20
  54780.599    0.1110E-20
  54780.668    0.1108E-20
  54780.738    0.1111E-20
  54780.808    0.1103E-20
  54780.878    0.1084E-20
  54780.948    0.1068E-20
  54781.018    0.1050E-20
  54781.088    0.1031E-20
  54781.157    0.9984E-21
  54781.227    0.9406E-21
  54781.297    0.8855E-21
  54781.367    0.8380E-21
  54781.437    0.7879E-21
  54781.507    0.7086E-21
  54781.577    0.6419E-21
  54781.646    0.5842E-21
  54781.716    0.5489E-21
  54781.786    0.5044E-21
  54781.856    0.4610E-21
  54781.926    0.4113E-21
  54781.996    0.3613E-21
  54782.066    0.3199E-21
  54782.136    0.2899E-21
  54782.205    0.2640E-21
  54782.275    0.2452E-21
  54782.345    0.2250E-21
  54782.415    0.2017E-21
  54782.485    0.1804E-21
  54782.555    0.1625E-21
  54782.625    0.1529E-21
  54782.694    0.1354E-21
  54782.764    0.1259E-21
  54782.834    0.1274E-21
  54782.904    0.1148E-21
  54782.974    0.9157E-22
  54783.044    0.7318E-22
  54783.114    0.6104E-22
  54783.183    0.5799E-22
  54783.253    0.6703E-22
  54783.323    0.7765E-22
  54783.393    0.8834E-22
  54783.463    0.1037E-21
  54783.533    0.1068E-21
  54783.603    0.9287E-22
  54783.673    0.7904E-22
  54783.742    0.6533E-22
  54783.812    0.6531E-22
  54783.882    0.6377E-22
  54783.952    0.6072E-22
  54784.022    0.4717E-22
  54784.092    0.3521E-22
  54784.162    0.2334E-22
  54784.232    0.5722E-23
  54784.301    0.2782E-23
  54784.371    0.4212E-23
  54784.441    0.2177E-22
  54784.511    0.4549E-22
  54784.581    0.5898E-22
  54784.651    0.6802E-22
  54784.721    0.6952E-22
  54784.791    0.5739E-22
  54784.860    0.3195E-22
  54784.930    0.1277E-22
  54785.000   -0.3885E-24
  54785.070   -0.1867E-23
  54785.140    0.1123E-22
  54785.210    0.3628E-22
  54785.280    0.4072E-22
  54785.350    0.3474E-22
  54785.419    0.3174E-22
  54785.489    0.2876E-22
  54785.559    0.2135E-22
  54785.629    0.3018E-22
  54785.699    0.3609E-22
  54785.769    0.2717E-22
  54785.839    0.3753E-22
  54785.909    0.5396E-22
  54785.978    0.6147E-22
  54786.048    0.5692E-22
  54786.118    0.5088E-22
  54786.188    0.3146E-22
  54786.258    0.9343E-23
  54786.328    0.7855E-23
  54786.398    0.9290E-23
  54786.468    0.2691E-22
  54786.537    0.3578E-22
  54786.607    0.4022E-22
  54786.677    0.4617E-22
  54786.747    0.4914E-22
  54786.817    0.4313E-22
  54786.887    0.2380E-22
  54786.957    0.1054E-22
  54787.027    0.1759E-23
  54787.097   -0.2628E-23
  54787.166   -0.1202E-23
  54787.236   -0.1228E-23
  54787.306    0.1654E-23
  54787.376    0.1039E-22
  54787.446    0.2654E-22
  54787.516    0.3988E-22
  54787.586    0.3985E-22
  54787.656    0.4730E-22
  54787.726    0.5027E-22
  54787.795    0.4127E-22
  54787.865    0.3975E-22
  54787.935    0.3972E-22
  54788.005    0.2781E-22
  54788.075    0.1305E-22
  54788.145   -0.1569E-23
  54788.215   -0.7396E-23
  54788.285   -0.5974E-23
  54788.355   -0.1648E-23
  54788.424   -0.4577E-23
  54788.494   -0.4604E-23
  54788.564   -0.3179E-23
  54788.634   -0.2993E-24
  54788.704    0.6962E-23
  54788.774    0.1133E-22
  54788.844    0.1130E-22
  54788.914    0.6884E-23
  54788.984    0.3938E-23
  54789.053    0.9756E-23
  54789.123    0.3886E-23
  54789.193   -0.7764E-23
  54789.263   -0.1933E-22
  54789.333   -0.1504E-22
  54789.403   -0.1650E-22
  54789.473   -0.2084E-22
  54789.543   -0.2231E-22
  54789.613   -0.1081E-22
  54789.682    0.5135E-23
  54789.752    0.1683E-22
  54789.822    0.2122E-22
  54789.892    0.3155E-22
  54789.962    0.2264E-22
  54790.032    0.1672E-22
  54790.102    0.1376E-22
  54790.172    0.2034E-23
  54790.242   -0.1105E-22
  54790.312   -0.1541E-22
  54790.381   -0.1975E-22
  54790.451   -0.1978E-22
  54790.521   -0.8263E-23
  54790.591    0.1877E-23
  54790.661   -0.1061E-23
  54790.731    0.6201E-23
  54790.801    0.2676E-22
  54790.871    0.4310E-22
  54790.941    0.5357E-22
  54791.011    0.5656E-22
  54791.080    0.4452E-22
  54791.150    0.3851E-22
  54791.220    0.2512E-22
  54791.290    0.7453E-23
  54791.360    0.1588E-23
  54791.430   -0.1438E-22
  54791.500   -0.3020E-22
  54791.570   -0.3735E-22
  54791.640   -0.4730E-22
  54791.710   -0.3740E-22
  54791.780   -0.2027E-22
  54791.849   -0.4413E-23
  54791.919    0.5754E-23
  54791.989    0.1305E-22
  54792.059    0.1596E-22
  54792.129    0.7137E-23
  54792.199    0.2730E-23
  54792.269    0.8548E-23
  54792.339    0.1292E-22
  54792.409    0.1583E-22
  54792.479    0.9933E-23
  54792.548   -0.4676E-23
  54792.618   -0.1050E-22
  54792.688   -0.7629E-23
  54792.758   -0.4755E-23
  54792.828   -0.4201E-24
  54792.898   -0.4807E-23
  54792.968   -0.1207E-22
  54793.038   -0.1931E-22
  54793.108   -0.1934E-22
  54793.178   -0.7813E-23
  54793.248    0.8180E-23
  54793.317    0.2878E-22
  54793.387    0.4066E-22
  54793.457    0.3914E-22
  54793.527    0.2574E-22
  54793.597    0.6586E-23
  54793.667   -0.9445E-23
  54793.737   -0.2675E-22
  54793.807   -0.3106E-22
  54793.877   -0.2393E-22
  54793.947   -0.1244E-22
  54794.017   -0.8668E-24
  54794.087    0.4940E-23
  54794.156    0.4914E-23
  54794.226   -0.3854E-23
  54794.296    0.4843E-24
  54794.366   -0.2453E-23
  54794.436   -0.6836E-23
  54794.506   -0.1051E-23
  54794.576   -0.1077E-23
  54794.646   -0.8365E-23
  54794.716   -0.1273E-22
  54794.786   -0.1709E-22
  54794.856   -0.1134E-22
  54794.926    0.2477E-24
  54794.995    0.2518E-22
  54795.065    0.4302E-22
  54795.135    0.4449E-22
  54795.205    0.3848E-22
  54795.275    0.3696E-22
  54795.345    0.3098E-22
  54795.415    0.1030E-22
  54795.485    0.4414E-23
  54795.555    0.1465E-22
  54795.625    0.2347E-22
  54795.695    0.2937E-22
  54795.765    0.3083E-22
  54795.835    0.2783E-22
  54795.904    0.3226E-22
  54795.974    0.4567E-22
  54796.044    0.5015E-22
  54796.114    0.4262E-22
  54796.184    0.2178E-22
  54796.254    0.1291E-22
  54796.324    0.2321E-22
  54796.394    0.3208E-22
  54796.464    0.2463E-22
  54796.534    0.2165E-22
  54796.604    0.2458E-22
  54796.674    0.2900E-22
  54796.744    0.3790E-22
  54796.813    0.4986E-22
  54796.883    0.4984E-22
  54796.953    0.3335E-22
  54797.023    0.1410E-22
  54797.093   -0.2024E-23
  54797.163   -0.1798E-22
  54797.233   -0.2663E-22
  54797.303   -0.3523E-22
  54797.373   -0.3526E-22
  54797.443   -0.3529E-22
  54797.513   -0.2243E-22
  54797.583   -0.5116E-23
  54797.653    0.7988E-23
  54797.723    0.1972E-22
  54797.792    0.2561E-22
  54797.862    0.2115E-22
  54797.932    0.1522E-22
  54798.002    0.1520E-22
  54798.072    0.1076E-22
  54798.142    0.6339E-23
  54798.212    0.1218E-22
  54798.282    0.1362E-22
  54798.352    0.1213E-22
  54798.422    0.3310E-23
  54798.492    0.3283E-23
  54798.562    0.1058E-22
  54798.632    0.1496E-22
  54798.702    0.9059E-23
  54798.772   -0.5564E-23
  54798.841   -0.5590E-23
  54798.911    0.4587E-23
  54798.981    0.1778E-22
  54799.051    0.2810E-22
  54799.121    0.2511E-22
  54799.191    0.1181E-22
  54799.261    0.4455E-23
  54799.331    0.2967E-23
  54799.401    0.4403E-23
  54799.471   -0.2918E-23
  54799.541   -0.4399E-23
  54799.611   -0.1515E-23
  54799.681   -0.2997E-23
  54799.751    0.1160E-22
  54799.821    0.2782E-22
  54799.891    0.3225E-22
  54799.960    0.2036E-22
  54800.030    0.4166E-23
  54800.100   -0.1186E-22
  54800.170   -0.3346E-22
  54800.240   -0.3919E-22
  54800.310   -0.2635E-22
  54800.380   -0.4715E-23
  54800.450    0.9868E-23
  54800.520    0.9842E-23
  54800.590   -0.3339E-23
  54800.660   -0.1786E-22
  54800.730   -0.2364E-22
  54800.800   -0.1502E-22
  54800.870    0.2388E-23
  54800.940    0.1409E-22
  54801.010    0.1996E-22
  54801.080    0.1699E-22
  54801.150    0.2283E-23
  54801.219   -0.1229E-22
  54801.289   -0.1376E-22
  54801.359   -0.1379E-22
  54801.429   -0.9467E-23
  54801.499   -0.3682E-23
  54801.569   -0.2252E-23
  54801.639   -0.5189E-23
  54801.709   -0.8121E-23
  54801.779   -0.6695E-23
  54801.849   -0.5268E-23
  54801.919   -0.9258E-24
  54801.989    0.1967E-23
  54802.059    0.6330E-23
  54802.129    0.1365E-22
  54802.199    0.1509E-22
  54802.269    0.7716E-23
  54802.339   -0.1084E-23
  54802.409   -0.1129E-22
  54802.479   -0.1421E-22
  54802.548   -0.5532E-23
  54802.618    0.1052E-22
  54802.688    0.4628E-23
  54802.758    0.2172E-24
  54802.828   -0.5637E-23
  54802.898   -0.1725E-22
  54802.968   -0.2879E-22
  54803.038   -0.3597E-22
  54803.108   -0.4169E-22
  54803.178   -0.3602E-22
  54803.248   -0.2459E-22
  54803.318   -0.1741E-22
  54803.388   -0.8753E-23
  54803.458    0.2876E-23
