# 16O2;(6,0);79K;52882-3170 cm-1;4433 pts
#     WNO          SIGMA  
  52882.069    0.1663E-22
  52882.133    0.1661E-22
  52882.198    0.9986E-23
  52882.262    0.7776E-23
  52882.327    0.4114E-23
  52882.392    0.5554E-23
  52882.456    0.1285E-22
  52882.521    0.2094E-22
  52882.585    0.2241E-22
  52882.650    0.2239E-22
  52882.714    0.2238E-22
  52882.779    0.2905E-22
  52882.843    0.3652E-22
  52882.908    0.4102E-22
  52882.973    0.4175E-22
  52883.037    0.3797E-22
  52883.102    0.3420E-22
  52883.166    0.3418E-22
  52883.231    0.2521E-22
  52883.295    0.1706E-22
  52883.360    0.2073E-22
  52883.424    0.2072E-22
  52883.489    0.1627E-22
  52883.554    0.7450E-23
  52883.618    0.1541E-24
  52883.683    0.8634E-24
  52883.747    0.4483E-23
  52883.812    0.1104E-22
  52883.876    0.1543E-22
  52883.941    0.1468E-22
  52884.005    0.1246E-22
  52884.070    0.8050E-23
  52884.135    0.7492E-24
  52884.199   -0.7941E-23
  52884.264   -0.8677E-23
  52884.328   -0.2199E-23
  52884.393    0.5778E-23
  52884.457    0.1529E-22
  52884.522    0.2266E-22
  52884.587    0.2487E-22
  52884.651    0.2337E-22
  52884.716    0.2039E-22
  52884.780    0.2111E-22
  52884.845    0.2480E-22
  52884.909    0.2034E-22
  52884.974    0.1516E-22
  52885.038    0.1588E-22
  52885.103    0.1586E-22
  52885.168    0.1437E-22
  52885.232    0.6295E-23
  52885.297    0.2635E-23
  52885.361    0.8455E-23
  52885.426    0.1357E-22
  52885.490    0.1209E-22
  52885.555    0.1207E-22
  52885.620    0.4738E-23
  52885.684    0.1810E-23
  52885.749   -0.1110E-23
  52885.813   -0.9788E-23
  52885.878   -0.1768E-22
  52885.942   -0.2339E-22
  52886.007   -0.2695E-22
  52886.072   -0.2413E-22
  52886.136   -0.1989E-22
  52886.201   -0.1634E-22
  52886.265   -0.4136E-23
  52886.330    0.4559E-23
  52886.394    0.6001E-23
  52886.459    0.6715E-23
  52886.524    0.1256E-22
  52886.588    0.1622E-22
  52886.653    0.1033E-22
  52886.717    0.5190E-23
  52886.782    0.3716E-23
  52886.846    0.9543E-23
  52886.911    0.1320E-22
  52886.976    0.1244E-22
  52887.040    0.8762E-23
  52887.105    0.6552E-23
  52887.169    0.2889E-23
  52887.234   -0.7601E-24
  52887.298   -0.7764E-24
  52887.363    0.2840E-23
  52887.428    0.8664E-23
  52887.492    0.6454E-23
  52887.557    0.6100E-24
  52887.621   -0.4479E-23
  52887.686   -0.5218E-23
  52887.750   -0.4511E-23
  52887.815   -0.8136E-23
  52887.880   -0.1031E-22
  52887.944   -0.1320E-22
  52888.009   -0.1178E-22
  52888.073   -0.4593E-23
  52888.138   -0.1714E-23
  52888.203   -0.2455E-23
  52888.267   -0.5365E-23
  52888.332   -0.3212E-23
  52888.396    0.6956E-23
  52888.461    0.7671E-23
  52888.525    0.1132E-22
  52888.590    0.1277E-22
  52888.655    0.1202E-22
  52888.719    0.9069E-23
  52888.784    0.3938E-23
  52888.848    0.1010E-23
  52888.913    0.3905E-23
  52888.977    0.1488E-22
  52889.042    0.1855E-22
  52889.107    0.2373E-22
  52889.171    0.2445E-22
  52889.236    0.2221E-22
  52889.300    0.1775E-22
  52889.365    0.6711E-23
  52889.430    0.3046E-23
  52889.494    0.5947E-23
  52889.559    0.1326E-22
  52889.623    0.1619E-22
  52889.688    0.2252E-23
  52889.753   -0.7184E-23
  52889.817   -0.1224E-22
  52889.882   -0.1010E-22
  52889.946   -0.3620E-23
  52890.011    0.2899E-23
  52890.075    0.1166E-22
  52890.140    0.2050E-22
  52890.205    0.2122E-22
  52890.269    0.1088E-22
  52890.334    0.4275E-23
  52890.398    0.7181E-23
  52890.463    0.7896E-23
  52890.528    0.3497E-23
  52890.592   -0.3060E-23
  52890.657   -0.9575E-23
  52890.721   -0.1605E-22
  52890.786   -0.1750E-22
  52890.850   -0.1465E-22
  52890.915   -0.7478E-23
  52890.980    0.6302E-23
  52891.044    0.2027E-22
  52891.109    0.2620E-22
  52891.173    0.2842E-22
  52891.238    0.2691E-22
  52891.303    0.2466E-22
  52891.367    0.2539E-22
  52891.432    0.2091E-22
  52891.496    0.1277E-22
  52891.561    0.1275E-22
  52891.626    0.1053E-22
  52891.690    0.1125E-22
  52891.755    0.1271E-22
  52891.819    0.1195E-22
  52891.884    0.9735E-23
  52891.949    0.1045E-22
  52892.013    0.9702E-23
  52892.078    0.3104E-23
  52892.142    0.1631E-23
  52892.207    0.3072E-23
  52892.272    0.8170E-23
  52892.336    0.1920E-22
  52892.401    0.2661E-22
  52892.465    0.2585E-22
  52892.530    0.1619E-22
  52892.595    0.5893E-23
  52892.659    0.2957E-23
  52892.724    0.5130E-23
  52892.788    0.4383E-23
  52892.853    0.8756E-23
  52892.918    0.9473E-23
  52892.982    0.1019E-22
  52893.047    0.1828E-22
  52893.111    0.2049E-22
  52893.176    0.1751E-22
  52893.241    0.5730E-23
  52893.305   -0.5194E-23
  52893.370   -0.5933E-23
  52893.434    0.5763E-24
  52893.499    0.8593E-23
  52893.564    0.9309E-23
  52893.628    0.1076E-22
  52893.693    0.1222E-22
  52893.757    0.2032E-22
  52893.822    0.3224E-22
  52893.887    0.3824E-22
  52893.951    0.3521E-22
  52894.016    0.2397E-22
  52894.080    0.9912E-23
  52894.145   -0.3308E-24
  52894.210   -0.1800E-23
  52894.274    0.3636E-24
  52894.339    0.1803E-23
  52894.403    0.2515E-23
  52894.468    0.3958E-23
  52894.533    0.6866E-23
  52894.597    0.6849E-23
  52894.662    0.7565E-23
  52894.726    0.1705E-23
  52894.791   -0.3398E-23
  52894.856   -0.2689E-23
  52894.920    0.6767E-23
  52894.985    0.1189E-22
  52895.049    0.1408E-22
  52895.114    0.1480E-22
  52895.179    0.9634E-23
  52895.243    0.5223E-23
  52895.308    0.1034E-22
  52895.372    0.1621E-22
  52895.437    0.1325E-22
  52895.502    0.8819E-23
  52895.566    0.3680E-23
  52895.631   -0.1434E-23
  52895.696   -0.1450E-23
  52895.760   -0.2918E-23
  52895.825   -0.2935E-23
  52895.889    0.2868E-23
  52895.954    0.8704E-23
  52896.019    0.1457E-22
  52896.083    0.2122E-22
  52896.148    0.1307E-22
  52896.212    0.4977E-23
  52896.277    0.5840E-24
  52896.342   -0.1600E-24
  52896.406   -0.3807E-23
  52896.471   -0.5996E-23
  52896.535   -0.1663E-23
  52896.600    0.3418E-23
  52896.665    0.6326E-23
  52896.729    0.8508E-23
  52896.794    0.9225E-23
  52896.859    0.4083E-23
  52896.923   -0.1035E-23
  52896.988   -0.1778E-23
  52897.052    0.1116E-23
  52897.117    0.3287E-23
  52897.182    0.3271E-23
  52897.246    0.1279E-22
  52897.311    0.1425E-22
  52897.376    0.1055E-22
  52897.440    0.3935E-23
  52897.505   -0.4547E-24
  52897.569    0.3172E-23
  52897.634    0.9012E-23
  52897.699    0.1415E-22
  52897.763    0.1266E-22
  52897.828    0.1264E-22
  52897.892    0.1115E-22
  52897.957    0.1556E-22
  52898.022    0.2073E-22
  52898.086    0.1997E-22
  52898.151    0.2516E-22
  52898.216    0.2589E-22
  52898.280    0.1844E-22
  52898.345    0.1030E-22
  52898.409    0.4367E-25
  52898.474   -0.3606E-23
  52898.539   -0.7966E-23
  52898.603   -0.1159E-22
  52898.668   -0.1520E-22
  52898.733   -0.1450E-22
  52898.797   -0.9475E-23
  52898.862    0.2845E-23
  52898.926    0.1457E-22
  52898.991    0.2569E-22
  52899.056    0.2941E-22
  52899.120    0.2566E-22
  52899.185    0.1230E-22
  52899.250    0.5589E-24
  52899.314   -0.4544E-23
  52899.379   -0.5285E-23
  52899.443   -0.5301E-23
  52899.508   -0.3142E-23
  52899.573   -0.1706E-23
  52899.637    0.5572E-23
  52899.702    0.1586E-22
  52899.767    0.2699E-22
  52899.831    0.2772E-22
  52899.896    0.2472E-22
  52899.960    0.2247E-22
  52900.025    0.2245E-22
  52900.090    0.2318E-22
  52900.154    0.1796E-22
  52900.219    0.1277E-22
  52900.284    0.6873E-23
  52900.348    0.6857E-23
  52900.413    0.8308E-23
  52900.477    0.9026E-23
  52900.542    0.8275E-23
  52900.607    0.6059E-23
  52900.671    0.2386E-23
  52900.736    0.3100E-23
  52900.801    0.9679E-23
  52900.865    0.1556E-22
  52900.930    0.1999E-22
  52900.995    0.1997E-22
  52901.059    0.2219E-22
  52901.124    0.2739E-22
  52901.188    0.2588E-22
  52901.253    0.1620E-22
  52901.318    0.9548E-23
  52901.382    0.5130E-23
  52901.447    0.9515E-23
  52901.512    0.1688E-22
  52901.576    0.2131E-22
  52901.641    0.1833E-22
  52901.706    0.1461E-22
  52901.770    0.1017E-22
  52901.835    0.9417E-23
  52901.899    0.1234E-22
  52901.964    0.2047E-22
  52902.029    0.2269E-22
  52902.093    0.1599E-22
  52902.158    0.9335E-23
  52902.223    0.3454E-23
  52902.287    0.1247E-23
  52902.352    0.1230E-23
  52902.417    0.5600E-23
  52902.481    0.1220E-22
  52902.546    0.1513E-22
  52902.610    0.9955E-23
  52902.675    0.8469E-23
  52902.740    0.9922E-23
  52902.804    0.1655E-22
  52902.869    0.2024E-22
  52902.934    0.2171E-22
  52902.998    0.2021E-22
  52903.063    0.1574E-22
  52903.128    0.1795E-22
  52903.192    0.1645E-22
  52903.257    0.1200E-22
  52903.322    0.1864E-22
  52903.386    0.2383E-22
  52903.451    0.2381E-22
  52903.515    0.1933E-22
  52903.580    0.2006E-22
  52903.645    0.1634E-22
  52903.709    0.1115E-22
  52903.774    0.1482E-22
  52903.839    0.1777E-22
  52903.903    0.2295E-22
  52903.968    0.3568E-22
  52904.033    0.4096E-22
  52904.097    0.3565E-22
  52904.162    0.2812E-22
  52904.227    0.1619E-22
  52904.291    0.1543E-22
  52904.356    0.1986E-22
  52904.420    0.2506E-22
  52904.485    0.3104E-22
  52904.550    0.3102E-22
  52904.614    0.2875E-22
  52904.679    0.2649E-22
  52904.744    0.2125E-22
  52904.808    0.1604E-22
  52904.873    0.2048E-22
  52904.938    0.2568E-22
  52905.002    0.2940E-22
  52905.067    0.3014E-22
  52905.132    0.1744E-22
  52905.196    0.7829E-23
  52905.261    0.7078E-23
  52905.326    0.8531E-23
  52905.390    0.1293E-22
  52905.455    0.2107E-22
  52905.520    0.2478E-22
  52905.584    0.2626E-22
  52905.649    0.2177E-22
  52905.714    0.1878E-22
  52905.778    0.1284E-22
  52905.843    0.2535E-23
  52905.907   -0.6941E-23
  52905.972   -0.7681E-23
  52906.037   -0.4338E-24
  52906.101    0.5398E-23
  52906.166    0.4649E-23
  52906.231    0.3900E-23
  52906.295    0.4616E-23
  52906.360    0.1343E-22
  52906.425    0.2605E-22
  52906.489    0.3278E-22
  52906.554    0.3277E-22
  52906.619    0.3350E-22
  52906.683    0.3198E-22
  52906.748    0.2971E-22
  52906.813    0.3045E-22
  52906.877    0.2743E-22
  52906.942    0.2517E-22
  52907.007    0.2291E-22
  52907.071    0.1992E-22
  52907.136    0.1397E-22
  52907.201    0.1026E-22
  52907.265    0.1172E-22
  52907.330    0.9494E-23
  52907.395    0.1538E-22
  52907.459    0.2280E-22
  52907.524    0.2204E-22
  52907.589    0.2351E-22
  52907.653    0.2275E-22
  52907.718    0.2199E-22
  52907.783    0.1677E-22
  52907.847    0.1231E-22
  52907.912    0.1082E-22
  52907.977    0.8594E-23
  52908.041    0.1522E-22
  52908.106    0.2413E-22
  52908.171    0.3010E-22
  52908.235    0.3008E-22
  52908.300    0.2857E-22
  52908.365    0.2331E-22
  52908.429    0.2255E-22
  52908.494    0.2627E-22
  52908.559    0.2700E-22
  52908.623    0.2848E-22
  52908.688    0.3298E-22
  52908.753    0.3976E-22
  52908.817    0.4355E-22
  52908.882    0.4963E-22
  52908.947    0.4656E-22
  52909.011    0.3667E-22
  52909.076    0.2612E-22
  52909.141    0.1716E-22
  52909.205    0.1197E-22
  52909.270    0.4593E-23
  52909.335    0.2380E-23
  52909.399    0.3096E-23
  52909.464    0.6746E-23
  52909.529    0.9672E-23
  52909.593    0.9656E-23
  52909.658    0.7431E-23
  52909.723    0.3746E-23
  52909.787    0.4462E-23
  52909.852    0.8117E-23
  52909.917    0.1326E-22
  52909.981    0.2067E-22
  52910.046    0.2438E-22
  52910.111    0.2212E-22
  52910.175    0.2062E-22
  52910.240    0.1614E-22
  52910.305    0.1021E-22
  52910.369    0.7986E-23
  52910.434    0.1018E-22
  52910.499    0.1164E-22
  52910.563    0.1532E-22
  52910.628    0.1382E-22
  52910.693    0.1381E-22
  52910.757    0.1010E-22
  52910.822    0.2002E-23
  52910.887    0.1255E-23
  52910.951    0.2701E-23
  52911.016    0.4883E-23
  52911.081    0.8541E-23
  52911.145    0.1443E-22
  52911.210    0.2483E-22
  52911.275    0.2482E-22
  52911.339    0.2330E-22
  52911.404    0.2478E-22
  52911.469    0.3605E-22
  52911.533    0.4057E-22
  52911.598    0.3299E-22
  52911.663    0.2997E-22
  52911.727    0.2022E-22
  52911.792    0.1427E-22
  52911.857    0.1573E-22
  52911.921    0.1202E-22
  52911.986    0.9048E-23
  52912.051    0.9031E-23
  52912.116    0.1197E-22
  52912.180    0.1491E-22
  52912.245    0.1193E-22
  52912.310    0.4555E-23
  52912.374    0.3805E-23
  52912.439   -0.3516E-23
  52912.504   -0.1347E-23
  52912.568    0.2291E-23
  52912.633    0.6676E-23
  52912.698    0.1404E-22
  52912.762    0.1699E-22
  52912.827    0.1994E-22
  52912.892    0.2291E-22
  52912.956    0.2364E-22
  52913.021    0.1989E-22
  52913.086    0.1765E-22
  52913.150    0.2284E-22
  52913.215    0.2732E-22
  52913.280    0.2805E-22
  52913.345    0.2354E-22
  52913.409    0.1831E-22
  52913.474    0.1236E-22
  52913.539    0.7181E-23
  52913.603    0.1233E-22
  52913.668    0.1750E-22
  52913.733    0.2569E-22
  52913.797    0.2717E-22
  52913.862    0.2941E-22
  52913.927    0.2939E-22
  52913.991    0.2338E-22
  52914.056    0.2261E-22
  52914.121    0.1962E-22
  52914.185    0.1440E-22
  52914.250    0.1216E-22
  52914.315    0.1808E-22
  52914.380    0.2029E-22
  52914.444    0.2028E-22
  52914.509    0.1729E-22
  52914.574    0.1653E-22
  52914.638    0.2097E-22
  52914.703    0.2619E-22
  52914.768    0.3445E-22
  52914.832    0.3595E-22
  52914.897    0.3215E-22
  52914.962    0.2687E-22
  52915.026    0.2536E-22
  52915.091    0.2909E-22
  52915.156    0.2533E-22
  52915.221    0.1636E-22
  52915.285    0.1264E-22
  52915.350    0.1262E-22
  52915.415    0.1261E-22
  52915.479    0.1853E-22
  52915.544    0.2523E-22
  52915.609    0.3047E-22
  52915.673    0.2970E-22
  52915.738    0.2893E-22
  52915.803    0.2441E-22
  52915.867    0.2739E-22
  52915.932    0.3189E-22
  52915.997    0.2962E-22
  52916.062    0.2435E-22
  52916.126    0.2209E-22
  52916.191    0.2357E-22
  52916.256    0.2056E-22
  52916.320    0.1831E-22
  52916.385    0.2277E-22
  52916.450    0.2350E-22
  52916.514    0.2498E-22
  52916.579    0.2872E-22
  52916.644    0.2420E-22
  52916.709    0.1302E-22
  52916.773    0.6359E-23
  52916.838    0.1205E-23
  52916.903    0.3387E-23
  52916.967    0.1295E-22
  52917.032    0.2260E-22
  52917.097    0.3009E-22
  52917.161    0.2782E-22
  52917.226    0.2930E-22
  52917.291    0.3004E-22
  52917.356    0.2852E-22
  52917.420    0.3227E-22
  52917.485    0.3452E-22
  52917.550    0.3073E-22
  52917.614    0.3524E-22
  52917.679    0.3447E-22
  52917.744    0.2767E-22
  52917.808    0.2017E-22
  52917.873    0.1494E-22
  52917.938    0.1270E-22
  52918.003    0.1195E-22
  52918.067    0.1119E-22
  52918.132    0.1860E-22
  52918.197    0.2906E-22
  52918.261    0.3130E-22
  52918.326    0.2752E-22
  52918.391    0.2376E-22
  52918.456    0.1480E-22
  52918.520    0.8861E-23
  52918.585    0.8845E-23
  52918.650    0.1178E-22
  52918.714    0.1547E-22
  52918.779    0.1620E-22
  52918.844    0.1916E-22
  52918.909    0.2362E-22
  52918.973    0.2961E-22
  52919.038    0.3563E-22
  52919.103    0.4017E-22
  52919.167    0.3484E-22
  52919.232    0.2804E-22
  52919.297    0.2878E-22
  52919.361    0.3177E-22
  52919.426    0.3327E-22
  52919.491    0.4159E-22
  52919.556    0.4234E-22
  52919.620    0.3928E-22
  52919.685    0.3547E-22
  52919.750    0.3621E-22
  52919.814    0.3544E-22
  52919.879    0.3466E-22
  52919.944    0.3465E-22
  52920.009    0.3690E-22
  52920.073    0.4450E-22
  52920.138    0.4984E-22
  52920.203    0.5059E-22
  52920.267    0.4598E-22
  52920.332    0.3910E-22
  52920.397    0.3378E-22
  52920.462    0.3149E-22
  52920.526    0.2471E-22
  52920.591    0.1723E-22
  52920.656    0.1275E-22
  52920.720    0.1422E-22
  52920.785    0.1867E-22
  52920.850    0.2463E-22
  52920.915    0.2761E-22
  52920.979    0.2459E-22
  52921.044    0.1934E-22
  52921.109    0.2007E-22
  52921.173    0.3282E-22
  52921.238    0.4649E-22
  52921.303    0.5339E-22
  52921.368    0.5337E-22
  52921.432    0.4339E-22
  52921.497    0.4032E-22
  52921.562    0.3727E-22
  52921.627    0.3346E-22
  52921.691    0.3043E-22
  52921.756    0.2740E-22
  52921.821    0.2588E-22
  52921.885    0.2737E-22
  52921.950    0.3869E-22
  52922.015    0.5167E-22
  52922.080    0.5705E-22
  52922.144    0.5858E-22
  52922.209    0.5470E-22
  52922.274    0.5160E-22
  52922.338    0.5621E-22
  52922.403    0.5697E-22
  52922.468    0.5541E-22
  52922.533    0.5231E-22
  52922.597    0.4691E-22
  52922.662    0.4766E-22
  52922.727    0.4459E-22
  52922.792    0.4304E-22
  52922.856    0.4379E-22
  52922.921    0.4836E-22
  52922.986    0.5605E-22
  52923.050    0.6301E-22
  52923.115    0.6377E-22
  52923.180    0.6454E-22
  52923.245    0.6296E-22
  52923.309    0.5906E-22
  52923.374    0.5209E-22
  52923.439    0.5285E-22
  52923.504    0.5592E-22
  52923.568    0.5204E-22
  52923.633    0.4588E-22
  52923.698    0.4663E-22
  52923.762    0.4892E-22
  52923.827    0.4967E-22
  52923.892    0.5737E-22
  52923.957    0.6200E-22
  52924.021    0.5656E-22
  52924.086    0.4730E-22
  52924.151    0.4346E-22
  52924.216    0.4880E-22
  52924.280    0.4879E-22
  52924.345    0.4954E-22
  52924.410    0.5029E-22
  52924.475    0.5490E-22
  52924.539    0.5565E-22
  52924.604    0.5486E-22
  52924.669    0.5639E-22
  52924.733    0.5021E-22
  52924.798    0.4789E-22
  52924.863    0.5634E-22
  52924.928    0.7113E-22
  52924.992    0.8136E-22
  52925.057    0.8055E-22
  52925.122    0.8054E-22
  52925.187    0.7973E-22
  52925.251    0.8130E-22
  52925.316    0.8923E-22
  52925.381    0.9482E-22
  52925.446    0.1029E-21
  52925.510    0.1085E-21
  52925.575    0.1036E-21
  52925.640    0.1036E-21
  52925.705    0.1004E-21
  52925.769    0.9232E-22
  52925.834    0.8591E-22
  52925.899    0.8351E-22
  52925.963    0.8350E-22
  52926.028    0.8746E-22
  52926.093    0.9464E-22
  52926.158    0.9945E-22
  52926.222    0.1035E-21
  52926.287    0.1140E-21
  52926.352    0.1231E-21
  52926.417    0.1297E-21
  52926.481    0.1272E-21
  52926.546    0.1214E-21
  52926.611    0.1197E-21
  52926.676    0.1263E-21
  52926.740    0.1362E-21
  52926.805    0.1455E-21
  52926.870    0.1505E-21
  52926.935    0.1530E-21
  52926.999    0.1564E-21
  52927.064    0.1615E-21
  52927.129    0.1745E-21
  52927.194    0.1814E-21
  52927.258    0.1770E-21
  52927.323    0.1727E-21
  52927.388    0.1822E-21
  52927.453    0.1945E-21
  52927.517    0.2123E-21
  52927.582    0.2323E-21
  52927.647    0.2480E-21
  52927.712    0.2620E-21
  52927.776    0.2772E-21
  52927.841    0.2965E-21
  52927.906    0.3162E-21
  52927.971    0.3353E-21
  52928.035    0.3547E-21
  52928.100    0.3829E-21
  52928.165    0.4152E-21
  52928.230    0.4485E-21
  52928.294    0.4806E-21
  52928.359    0.5089E-21
  52928.424    0.5307E-21
  52928.489    0.5542E-21
  52928.553    0.5756E-21
  52928.618    0.5911E-21
  52928.683    0.6307E-21
  52928.748    0.6719E-21
  52928.812    0.6974E-21
  52928.877    0.7162E-21
  52928.942    0.7264E-21
  52929.007    0.7279E-21
  52929.071    0.7309E-21
  52929.136    0.7279E-21
  52929.201    0.7161E-21
  52929.266    0.6972E-21
  52929.330    0.6787E-21
  52929.395    0.6495E-21
  52929.460    0.6198E-21
  52929.525    0.5973E-21
  52929.589    0.5652E-21
  52929.654    0.5316E-21
  52929.719    0.5038E-21
  52929.784    0.4767E-21
  52929.848    0.4549E-21
  52929.913    0.4391E-21
  52929.978    0.4180E-21
  52930.043    0.3888E-21
  52930.107    0.3604E-21
  52930.172    0.3398E-21
  52930.237    0.3276E-21
  52930.302    0.3186E-21
  52930.366    0.3067E-21
  52930.431    0.2900E-21
  52930.496    0.2727E-21
  52930.561    0.2500E-21
  52930.625    0.2370E-21
  52930.690    0.2288E-21
  52930.755    0.2187E-21
  52930.820    0.2097E-21
  52930.884    0.2025E-21
  52930.949    0.1936E-21
  52931.014    0.1883E-21
  52931.079    0.1822E-21
  52931.143    0.1778E-21
  52931.208    0.1691E-21
  52931.273    0.1545E-21
  52931.338    0.1443E-21
  52931.403    0.1376E-21
  52931.467    0.1292E-21
  52931.532    0.1259E-21
