# 16O2;(12,0);79K;55537-856 cm-1;4426 pts
  55537.118    0.1099E-20
  55537.190    0.1037E-20
  55537.262    0.9521E-21
  55537.333    0.8738E-21
  55537.405    0.8140E-21
  55537.477    0.8139E-21
  55537.549    0.8197E-21
  55537.620    0.8374E-21
  55537.692    0.8373E-21
  55537.764    0.7897E-21
  55537.836    0.7248E-21
  55537.907    0.6084E-21
  55537.979    0.5053E-21
  55538.051    0.4374E-21
  55538.123    0.3980E-21
  55538.194    0.4034E-21
  55538.266    0.4145E-21
  55538.338    0.3641E-21
  55538.410    0.3029E-21
  55538.482    0.2863E-21
  55538.553    0.2861E-21
  55538.625    0.2530E-21
  55538.697    0.2420E-21
  55538.769    0.2418E-21
  55538.840    0.2253E-21
  55538.912    0.2034E-21
  55538.984    0.2305E-21
  55539.056    0.2742E-21
  55539.127    0.2631E-21
  55539.199    0.2520E-21
  55539.271    0.2300E-21
  55539.343    0.2080E-21
  55539.415    0.2681E-21
  55539.486    0.3397E-21
  55539.558    0.3674E-21
  55539.630    0.3450E-21
  55539.702    0.3061E-21
  55539.773    0.3060E-21
  55539.845    0.3391E-21
  55539.917    0.3278E-21
  55539.989    0.3166E-21
  55540.060    0.2669E-21
  55540.132    0.2284E-21
  55540.204    0.2501E-21
  55540.276    0.2610E-21
  55540.348    0.2828E-21
  55540.419    0.2882E-21
  55540.491    0.2661E-21
  55540.563    0.2385E-21
  55540.635    0.2329E-21
  55540.706    0.2055E-21
  55540.778    0.2054E-21
  55540.850    0.2216E-21
  55540.922    0.2051E-21
  55540.994    0.2159E-21
  55541.065    0.2212E-21
  55541.137    0.2211E-21
  55541.209    0.1774E-21
  55541.281    0.1394E-21
  55541.352    0.1284E-21
  55541.424    0.1553E-21
  55541.496    0.1931E-21
  55541.568    0.2641E-21
  55541.639    0.3136E-21
  55541.711    0.3190E-21
  55541.783    0.2857E-21
  55541.855    0.2581E-21
  55541.927    0.2634E-21
  55541.998    0.2853E-21
  55542.070    0.3183E-21
  55542.142    0.2906E-21
  55542.214    0.2684E-21
  55542.285    0.2628E-21
  55542.357    0.2243E-21
  55542.429    0.1697E-21
  55542.501    0.1263E-21
  55542.573    0.7250E-22
  55542.644    0.2971E-22
  55542.716    0.3045E-23
  55542.788    0.8211E-23
  55542.860    0.3995E-22
  55542.931    0.9863E-22
  55543.003    0.1686E-21
  55543.075    0.2229E-21
  55543.147    0.2447E-21
  55543.219    0.2336E-21
  55543.290    0.2171E-21
  55543.362    0.1951E-21
  55543.434    0.1841E-21
  55543.506    0.1731E-21
  55543.578    0.1243E-21
  55543.649    0.9731E-22
  55543.721    0.1187E-21
  55543.793    0.1347E-21
  55543.865    0.1671E-21
  55543.936    0.1941E-21
  55544.008    0.1722E-21
  55544.080    0.1342E-21
  55544.152    0.1503E-21
  55544.224    0.1610E-21
  55544.295    0.1608E-21
  55544.367    0.1879E-21
  55544.439    0.2259E-21
  55544.511    0.2477E-21
  55544.582    0.1983E-21
  55544.654    0.1710E-21
  55544.726    0.1872E-21
  55544.798    0.2034E-21
  55544.870    0.2690E-21
  55544.941    0.3241E-21
  55545.013    0.2742E-21
  55545.085    0.2192E-21
  55545.157    0.2300E-21
  55545.229    0.2244E-21
  55545.300    0.2025E-21
  55545.372    0.1480E-21
  55545.444    0.7791E-22
  55545.516    0.1379E-22
  55545.587   -0.1284E-22
  55545.659   -0.1826E-22
  55545.731    0.1339E-22
  55545.803    0.6654E-22
  55545.875    0.9858E-22
  55545.946    0.1308E-21
  55546.018    0.1522E-21
  55546.090    0.1251E-21
  55546.162    0.1466E-21
  55546.234    0.1844E-21
  55546.305    0.2006E-21
  55546.377    0.2005E-21
  55546.449    0.1460E-21
  55546.521    0.9738E-22
  55546.592    0.8115E-22
  55546.664    0.8102E-22
  55546.736    0.9699E-22
  55546.808    0.1130E-21
  55546.880    0.1344E-21
  55546.951    0.1181E-21
  55547.023    0.1072E-21
  55547.095    0.1017E-21
  55547.167    0.1339E-21
  55547.239    0.1663E-21
  55547.310    0.1661E-21
  55547.382    0.1877E-21
  55547.454    0.2094E-21
  55547.526    0.2476E-21
  55547.598    0.2475E-21
  55547.669    0.2418E-21
  55547.741    0.2253E-21
  55547.813    0.1652E-21
  55547.885    0.1380E-21
  55547.957    0.1595E-21
  55548.028    0.1865E-21
  55548.100    0.2082E-21
  55548.172    0.2245E-21
  55548.244    0.2738E-21
  55548.316    0.3290E-21
  55548.387    0.3678E-21
  55548.459    0.3621E-21
  55548.531    0.3788E-21
  55548.603    0.4067E-21
  55548.674    0.4121E-21
  55548.746    0.3952E-21
  55548.818    0.4063E-21
  55548.890    0.3725E-21
  55548.962    0.3222E-21
  55549.033    0.2944E-21
  55549.105    0.2502E-21
  55549.177    0.2062E-21
  55549.249    0.2116E-21
  55549.321    0.2388E-21
  55549.392    0.2827E-21
  55549.464    0.3269E-21
  55549.536    0.3378E-21
  55549.608    0.3600E-21
  55549.680    0.3878E-21
  55549.751    0.3821E-21
  55549.823    0.3485E-21
  55549.895    0.3539E-21
  55549.967    0.3929E-21
  55550.039    0.3536E-21
  55550.110    0.3146E-21
  55550.182    0.3311E-21
  55550.254    0.3365E-21
  55550.326    0.2920E-21
  55550.398    0.2368E-21
  55550.469    0.2038E-21
  55550.541    0.1765E-21
  55550.613    0.1655E-21
  55550.685    0.1816E-21
  55550.757    0.2307E-21
  55550.828    0.2966E-21
  55550.900    0.3076E-21
  55550.972    0.3074E-21
  55551.044    0.2852E-21
  55551.116    0.2850E-21
  55551.187    0.2518E-21
  55551.259    0.2243E-21
  55551.331    0.2296E-21
  55551.403    0.1967E-21
  55551.475    0.2293E-21
  55551.547    0.2677E-21
  55551.618    0.3007E-21
  55551.690    0.3006E-21
  55551.762    0.2673E-21
  55551.834    0.2013E-21
  55551.906    0.1468E-21
  55551.977    0.1521E-21
  55552.049    0.1574E-21
  55552.121    0.1735E-21
  55552.193    0.1680E-21
  55552.265    0.1896E-21
  55552.336    0.1895E-21
  55552.408    0.1948E-21
  55552.480    0.2056E-21
  55552.552    0.2273E-21
  55552.624    0.2602E-21
  55552.695    0.2766E-21
  55552.767    0.3152E-21
  55552.839    0.3820E-21
  55552.911    0.4099E-21
  55552.983    0.4606E-21
  55553.054    0.4662E-21
  55553.126    0.4208E-21
  55553.198    0.3590E-21
  55553.270    0.2976E-21
  55553.342    0.2424E-21
  55553.413    0.2258E-21
  55553.485    0.2586E-21
  55553.557    0.3193E-21
  55553.629    0.3861E-21
  55553.701    0.4423E-21
  55553.773    0.4819E-21
  55553.844    0.4988E-21
  55553.916    0.4987E-21
  55553.988    0.5328E-21
  55554.060    0.5786E-21
  55554.132    0.6422E-21
  55554.203    0.6946E-21
  55554.275    0.6886E-21
  55554.347    0.6709E-21
  55554.419    0.6242E-21
  55554.491    0.6009E-21
  55554.562    0.6240E-21
  55554.634    0.6880E-21
  55554.706    0.7525E-21
  55554.778    0.8177E-21
  55554.850    0.9257E-21
  55554.922    0.1017E-20
  55554.993    0.1054E-20
  55555.065    0.1178E-20
  55555.137    0.1311E-20
  55555.209    0.1473E-20
  55555.281    0.1658E-20
  55555.352    0.1904E-20
  55555.424    0.2188E-20
  55555.496    0.2514E-20
  55555.568    0.2880E-20
  55555.640    0.3299E-20
  55555.712    0.3855E-20
  55555.783    0.4518E-20
  55555.855    0.5574E-20
  55555.927    0.6301E-20
  55555.999    0.6898E-20
  55556.071    0.7461E-20
  55556.142    0.7914E-20
  55556.214    0.8143E-20
  55556.286    0.8187E-20
  55556.358    0.7984E-20
  55556.430    0.7591E-20
  55556.502    0.7171E-20
  55556.573    0.6854E-20
  55556.645    0.6583E-20
  55556.717    0.6383E-20
  55556.789    0.6251E-20
  55556.861    0.6167E-20
  55556.932    0.6269E-20
  55557.004    0.6571E-20
  55557.076    0.7058E-20
  55557.148    0.7532E-20
  55557.220    0.7995E-20
  55557.292    0.8391E-20
  55557.363    0.8616E-20
  55557.435    0.8762E-20
  55557.507    0.8888E-20
  55557.579    0.8967E-20
  55557.651    0.8982E-20
  55557.722    0.9014E-20
  55557.794    0.8953E-20
  55557.866    0.8778E-20
  55557.938    0.8383E-20
  55558.010    0.7898E-20
  55558.082    0.7269E-20
  55558.153    0.6727E-20
  55558.225    0.6212E-20
  55558.297    0.5684E-20
  55558.369    0.5120E-20
  55558.441    0.4363E-20
  55558.513    0.3988E-20
  55558.584    0.3579E-20
  55558.656    0.3193E-20
  55558.728    0.2914E-20
  55558.800    0.2615E-20
  55558.872    0.2343E-20
  55558.943    0.2074E-20
  55559.015    0.1753E-20
  55559.087    0.1498E-20
  55559.159    0.1336E-20
  55559.231    0.1240E-20
  55559.303    0.1195E-20
  55559.374    0.1133E-20
  55559.446    0.1083E-20
  55559.518    0.1002E-20
  55559.590    0.9048E-21
  55559.662    0.7908E-21
  55559.734    0.7137E-21
  55559.805    0.6960E-21
  55559.877    0.7076E-21
  55559.949    0.7192E-21
  55560.021    0.7545E-21
  55560.093    0.7722E-21
  55560.165    0.7071E-21
  55560.236    0.6309E-21
  55560.308    0.5498E-21
  55560.380    0.4981E-21
  55560.452    0.4695E-21
  55560.524    0.4637E-21
  55560.596    0.4692E-21
  55560.667    0.4691E-21
  55560.739    0.4690E-21
  55560.811    0.4405E-21
  55560.883    0.4177E-21
  55560.955    0.3894E-21
  55561.027    0.3669E-21
  55561.098    0.3723E-21
  55561.170    0.3442E-21
  55561.242    0.3385E-21
  55561.314    0.3719E-21
  55561.386    0.4055E-21
  55561.458    0.3885E-21
  55561.529    0.3659E-21
  55561.601    0.3378E-21
  55561.673    0.2821E-21
  55561.745    0.2764E-21
  55561.817    0.2652E-21
  55561.889    0.2651E-21
  55561.960    0.3093E-21
  55562.032    0.3259E-21
  55562.104    0.3202E-21
  55562.176    0.3256E-21
  55562.248    0.3702E-21
  55562.320    0.3982E-21
  55562.391    0.4206E-21
  55562.463    0.4431E-21
  55562.535    0.3753E-21
  55562.607    0.2859E-21
  55562.679    0.2086E-21
  55562.751    0.1921E-21
  55562.822    0.2083E-21
  55562.894    0.2137E-21
  55562.966    0.2466E-21
  55563.038    0.2851E-21
  55563.110    0.2628E-21
  55563.182    0.2187E-21
  55563.253    0.1857E-21
  55563.325    0.1583E-21
  55563.397    0.1418E-21
  55563.469    0.1146E-21
  55563.541    0.1470E-21
  55563.613    0.1795E-21
  55563.684    0.1794E-21
  55563.756    0.1683E-21
  55563.828    0.1682E-21
  55563.900    0.1790E-21
  55563.972    0.2117E-21
  55564.044    0.2446E-21
  55564.115    0.2665E-21
  55564.187    0.2885E-21
  55564.259    0.2828E-21
  55564.331    0.2716E-21
  55564.403    0.2549E-21
  55564.475    0.2327E-21
  55564.547    0.1942E-21
  55564.618    0.1886E-21
  55564.690    0.1721E-21
  55564.762    0.1883E-21
  55564.834    0.2376E-21
  55564.906    0.2872E-21
  55564.978    0.3037E-21
  55565.049    0.2593E-21
  55565.121    0.1877E-21
  55565.193    0.1439E-21
  55565.265    0.1765E-21
  55565.337    0.2312E-21
  55565.409    0.2752E-21
  55565.481    0.3139E-21
  55565.552    0.3361E-21
  55565.624    0.2914E-21
  55565.696    0.1975E-21
  55565.768    0.1211E-21
  55565.840    0.9937E-22
  55565.912    0.8305E-22
  55565.983    0.5065E-22
  55566.055    0.6126E-22
  55566.127    0.6650E-22
  55566.199    0.7174E-22
  55566.271    0.1365E-21
  55566.343    0.1527E-21
  55566.415    0.1853E-21
  55566.486    0.2621E-21
  55566.558    0.2675E-21
  55566.630    0.2288E-21
  55566.702    0.2066E-21
  55566.774    0.1519E-21
  55566.846    0.9210E-22
  55566.917    0.4892E-22
  55566.989    0.3271E-22
  55567.061   -0.4794E-23
  55567.133    0.5730E-23
  55567.205    0.7526E-22
  55567.277    0.9130E-22
  55567.349    0.6961E-22
  55567.420    0.1053E-22
  55567.492   -0.2686E-22
  55567.564    0.4931E-23
  55567.636    0.8524E-22
  55567.708    0.1556E-21
  55567.780    0.1937E-21
  55567.852    0.1881E-21
  55567.923    0.1443E-21
  55567.995    0.1116E-21
  55568.067    0.8984E-22
  55568.139    0.1005E-21
  55568.211    0.1546E-21
  55568.283    0.2147E-21
  55568.354    0.2311E-21
  55568.426    0.2364E-21
  55568.498    0.2088E-21
  55568.570    0.2032E-21
  55568.642    0.1976E-21
  55568.714    0.1865E-21
  55568.786    0.2248E-21
  55568.857    0.2633E-21
  55568.929    0.3410E-21
  55569.001    0.4196E-21
  55569.073    0.4706E-21
  55569.145    0.4990E-21
  55569.217    0.4817E-21
  55569.289    0.4645E-21
  55569.360    0.4416E-21
  55569.432    0.4132E-21
  55569.504    0.4187E-21
  55569.576    0.4640E-21
  55569.648    0.5440E-21
  55569.720    0.6017E-21
  55569.792    0.6132E-21
  55569.863    0.6073E-21
  55569.935    0.6188E-21
  55570.007    0.6070E-21
  55570.079    0.5894E-21
  55570.151    0.6009E-21
  55570.223    0.5718E-21
  55570.295    0.4855E-21
  55570.366    0.4058E-21
  55570.438    0.3719E-21
  55570.510    0.4055E-21
  55570.582    0.4621E-21
  55570.654    0.4336E-21
  55570.726    0.4051E-21
  55570.798    0.3712E-21
  55570.869    0.3262E-21
  55570.941    0.3094E-21
  55571.013    0.3037E-21
  55571.085    0.3147E-21
  55571.157    0.3313E-21
  55571.229    0.3033E-21
  55571.301    0.2643E-21
  55571.372    0.2255E-21
  55571.444    0.1924E-21
  55571.516    0.1268E-21
  55571.588    0.9952E-22
  55571.660    0.1156E-21
  55571.732    0.1809E-21
  55571.804    0.2633E-21
  55571.876    0.2577E-21
  55571.947    0.1969E-21
  55572.019    0.1694E-21
  55572.091    0.1529E-21
  55572.163    0.1147E-21
  55572.235    0.1146E-21
  55572.307    0.1416E-21
  55572.379    0.1469E-21
  55572.450    0.1413E-21
  55572.522    0.9238E-22
  55572.594    0.4913E-22
  55572.666    0.8131E-22
  55572.738    0.1517E-21
  55572.810    0.1953E-21
  55572.882    0.1897E-21
  55572.954    0.1513E-21
  55573.025    0.8604E-22
  55573.097   -0.5334E-23
  55573.169   -0.2145E-22
  55573.241    0.5072E-23
  55573.313   -0.4002E-24
  55573.385    0.1015E-22
  55573.457    0.2071E-22
  55573.528    0.2058E-22
  55573.600    0.4189E-22
  55573.672    0.7944E-22
  55573.744    0.1009E-21
  55573.816    0.9538E-22
  55573.888    0.7904E-22
  55573.960    0.4122E-22
  55574.032   -0.3899E-22
  55574.103   -0.5503E-22
  55574.175    0.8680E-23
  55574.247    0.9458E-22
  55574.319    0.1651E-21
  55574.391    0.1650E-21
  55574.463    0.1922E-21
  55574.535    0.1866E-21
  55574.606    0.1865E-21
  55574.678    0.1754E-21
  55574.750    0.1480E-21
  55574.822    0.1261E-21
  55574.894    0.8797E-22
  55574.966    0.8784E-22
  55575.038    0.1311E-21
  55575.110    0.2020E-21
  55575.181    0.2460E-21
  55575.253    0.2569E-21
  55575.325    0.2457E-21
  55575.397    0.2677E-21
  55575.469    0.3289E-21
  55575.541    0.3176E-21
  55575.613    0.3007E-21
  55575.685    0.2506E-21
  55575.756    0.1734E-21
  55575.828    0.1242E-21
  55575.900    0.1349E-21
  55575.972    0.1511E-21
  55576.044    0.1948E-21
  55576.116    0.2609E-21
  55576.188    0.3275E-21
  55576.260    0.3386E-21
  55576.331    0.2994E-21
  55576.403    0.2992E-21
  55576.475    0.2768E-21
  55576.547    0.2711E-21
  55576.619    0.2655E-21
  55576.691    0.2542E-21
  55576.763    0.2375E-21
  55576.835    0.1824E-21
  55576.906    0.1440E-21
  55576.978    0.1438E-21
  55577.050    0.1546E-21
  55577.122    0.2148E-21
  55577.194    0.1872E-21
  55577.266    0.1161E-21
  55577.338    0.9425E-22
  55577.410    0.7250E-22
  55577.482    0.1211E-21
  55577.553    0.1646E-21
  55577.625    0.1535E-21
  55577.697    0.7196E-22
  55577.769    0.3414E-22
  55577.841    0.5014E-22
  55577.913    0.7156E-22
  55577.985    0.9305E-22
  55578.057    0.6590E-22
  55578.128    0.6037E-22
  55578.200    0.6024E-22
  55578.272    0.4933E-22
  55578.344    0.1699E-22
  55578.416    0.4907E-22
  55578.488    0.8670E-22
  55578.560    0.1191E-21
  55578.632    0.1407E-21
  55578.704    0.1515E-21
  55578.775    0.1787E-21
  55578.847    0.1951E-21
  55578.919    0.2004E-21
  55578.991    0.2058E-21
  55579.063    0.2057E-21
  55579.135    0.2166E-21
  55579.207    0.2219E-21
  55579.279    0.1669E-21
  55579.350    0.1503E-21
  55579.422    0.1557E-21
  55579.494    0.1391E-21
  55579.566    0.1445E-21
  55579.638    0.1771E-21
  55579.710    0.2045E-21
  55579.782    0.2374E-21
  55579.854    0.2152E-21
  55579.926    0.1493E-21
  55579.997    0.1219E-21
  55580.069    0.1490E-21
  55580.141    0.1707E-21
  55580.213    0.1980E-21
  55580.285    0.1869E-21
  55580.357    0.2308E-21
  55580.429    0.2362E-21
  55580.501    0.2195E-21
  55580.573    0.1864E-21
  55580.644    0.1098E-21
  55580.716    0.5556E-22
  55580.788    0.5543E-22
  55580.860    0.9312E-22
  55580.932    0.1474E-21
  55581.004    0.1911E-21
  55581.076    0.2185E-21
  55581.148    0.1853E-21
  55581.220    0.1687E-21
  55581.291    0.1631E-21
  55581.363    0.1575E-21
  55581.435    0.1192E-21
  55581.507    0.4332E-22
  55581.579    0.3243E-22
  55581.651    0.8082E-22
  55581.723    0.1241E-21
  55581.795    0.1567E-21
  55581.867    0.1620E-21
  55581.938    0.9654E-22
  55582.010    0.7475E-22
  55582.082    0.1017E-21
  55582.154    0.1451E-21
  55582.226    0.2108E-21
  55582.298    0.2549E-21
  55582.370    0.2437E-21
  55582.442    0.2491E-21
  55582.514    0.2324E-21
  55582.586    0.1771E-21
  55582.657    0.1061E-21
  55582.729    0.7882E-22
  55582.801    0.8410E-22
  55582.873    0.5155E-22
  55582.945    0.5142E-22
  55583.017    0.9453E-22
  55583.089    0.1270E-21
  55583.161    0.1378E-21
  55583.233    0.1540E-21
  55583.304    0.1539E-21
  55583.376    0.1374E-21
  55583.448    0.1646E-21
  55583.520    0.1809E-21
  55583.592    0.2303E-21
  55583.664    0.2801E-21
  55583.736    0.2522E-21
  55583.808    0.2410E-21
  55583.880    0.2797E-21
  55583.952    0.2963E-21
  55584.023    0.2795E-21
  55584.095    0.2571E-21
  55584.167    0.2792E-21
  55584.239    0.2680E-21
  55584.311    0.2734E-21
  55584.383    0.2788E-21
  55584.455    0.2343E-21
  55584.527    0.1681E-21
  55584.599    0.6453E-22
  55584.671    0.1058E-22
  55584.742   -0.1096E-22
  55584.814    0.1031E-22
  55584.886    0.1237E-21
  55584.958    0.2278E-21
  55585.030    0.2720E-21
  55585.102    0.2497E-21
  55585.174    0.2108E-21
  55585.246    0.1394E-21
  55585.318    0.9567E-22
  55585.390    0.9554E-22
  55585.461    0.8998E-22
  55585.533    0.5739E-22
  55585.605    0.4647E-22
  55585.677    0.5172E-22
  55585.749    0.5699E-22
  55585.821    0.1056E-21
  55585.893    0.1272E-21
  55585.965    0.1435E-21
  55586.037    0.1652E-21
  55586.109    0.2036E-21
  55586.181    0.2255E-21
  55586.252    0.1758E-21
  55586.324    0.1210E-21
  55586.396    0.1209E-21
  55586.468    0.1371E-21
  55586.540    0.1643E-21
  55586.612    0.2082E-21
  55586.684    0.2578E-21
  55586.756    0.2466E-21
  55586.828    0.2520E-21
  55586.900    0.2519E-21
  55586.971    0.2185E-21
  55587.043    0.2239E-21
  55587.115    0.2570E-21
  55587.187    0.3407E-21
  55587.259    0.4084E-21
  55587.331    0.4253E-21
  55587.403    0.4365E-21
  55587.475    0.4023E-21
  55587.547    0.3232E-21
  55587.619    0.2895E-21
  55587.691    0.2727E-21
  55587.762    0.3116E-21
  55587.834    0.4130E-21
  55587.906    0.5101E-21
  55587.978    0.6085E-21
  55588.050    0.7321E-21
  55588.122    0.8338E-21
  55588.194    0.8942E-21
  55588.266    0.9062E-21
  55588.338    0.9427E-21
  55588.410    0.9671E-21
  55588.482    0.1004E-20
  55588.553    0.1091E-20
  55588.625    0.1173E-20
  55588.697    0.1191E-20
  55588.769    0.1185E-20
  55588.841    0.1204E-20
  55588.913    0.1280E-20
  55588.985    0.1416E-20
  55589.057    0.1595E-20
  55589.129    0.1724E-20
  55589.201    0.1814E-20
  55589.273    0.1834E-20
  55589.345    0.1883E-20
  55589.416    0.2003E-20
  55589.488    0.2176E-20
  55589.560    0.2360E-20
  55589.632    0.2565E-20
  55589.704    0.2784E-20
  55589.776    0.3093E-20
  55589.848    0.3477E-20
  55589.920    0.3958E-20
  55589.992    0.4566E-20
  55590.064    0.5368E-20
  55590.136    0.6077E-20
  55590.208    0.6706E-20
  55590.279    0.7199E-20
  55590.351    0.7684E-20
  55590.423    0.7936E-20
  55590.495    0.7954E-20
  55590.567    0.7681E-20
  55590.639    0.7260E-20
  55590.711    0.6813E-20
  55590.783    0.6366E-20
  55590.855    0.5977E-20
  55590.927    0.5624E-20
  55590.999    0.5402E-20
  55591.071    0.5271E-20
  55591.142    0.5259E-20
  55591.214    0.5318E-20
  55591.286    0.5421E-20
  55591.358    0.5692E-20
  55591.430    0.6072E-20
  55591.502    0.6520E-20
  55591.574    0.7063E-20
  55591.646    0.7527E-20
  55591.718    0.7928E-20
  55591.790    0.8193E-20
  55591.862    0.8261E-20
  55591.934    0.8271E-20
  55592.006    0.8264E-20
  55592.077    0.8220E-20
  55592.149    0.8072E-20
