# 16O2;(8,0);79K;53850-4200 cm-1;5173 pts
#     WNO          SIGMA  
  53850.006   -1.2297E-23
  53850.073   -1.6951E-23
  53850.140   -9.0584E-24
  53850.208    1.3891E-23
  53850.275    2.6617E-23
  53850.342    3.2384E-23
  53850.410    2.6429E-23
  53850.477    8.8757E-24
  53850.544    7.0118E-25
  53850.611    6.0669E-25
  53850.679    1.3224E-23
  53850.746    1.4290E-23
  53850.813    1.0717E-23
  53850.881    4.8393E-24
  53850.948   -4.4662E-24
  53851.015   -5.7077E-24
  53851.082   -8.0952E-24
  53851.150   -9.3359E-24
  53851.217   -1.4006E-23
  53851.284   -1.1810E-23
  53851.352   -6.1816E-24
  53851.419    6.2193E-25
  53851.486    3.9874E-24
  53851.553    8.5150E-24
  53851.621    1.6550E-23
  53851.688    1.0647E-23
  53851.755    4.7643E-24
  53851.823    5.3542E-26
  53851.890   -2.3436E-24
  53851.957   -1.1615E-23
  53852.024   -2.1972E-23
  53852.092   -2.9997E-23
  53852.159   -3.4610E-23
  53852.226   -3.3574E-23
  53852.294   -2.9148E-23
  53852.361   -2.6982E-23
  53852.428   -2.2535E-23
  53852.495   -1.9219E-23
  53852.563   -1.8173E-23
  53852.630   -1.4847E-23
  53852.697   -1.4940E-23
  53852.765   -1.3895E-23
  53852.832   -5.9677E-24
  53852.899   -4.9132E-24
  53852.966   -7.3046E-24
  53853.034   -1.3130E-23
  53853.101   -2.3484E-23
  53853.168   -2.5847E-23
  53853.236   -1.5702E-23
  53853.303   -8.9265E-24
  53853.370   -9.0210E-24
  53853.438   -3.3703E-24
  53853.505    1.1478E-24
  53853.572   -1.0071E-25
  53853.639   -4.8042E-24
  53853.707    8.6308E-25
  53853.774    5.3976E-24
  53853.841    1.2264E-23
  53853.909    2.1499E-23
  53853.976    1.7906E-23
  53854.043    8.4924E-24
  53854.110    7.2389E-24
  53854.178    1.3562E-24
  53854.245   -4.5058E-24
  53854.312   -3.4488E-24
  53854.380   -5.8466E-24
  53854.447   -1.3320E-24
  53854.514   -3.7324E-24
  53854.582   -1.6449E-23
  53854.649   -2.3393E-23
  53854.716   -2.6896E-23
  53854.783   -2.9260E-23
  53854.851   -3.0484E-23
  53854.918   -2.8308E-23
  53854.985   -1.2439E-23
  53855.053    1.2496E-25
  53855.120    9.3005E-24
  53855.187    1.5027E-23
  53855.255    5.6323E-24
  53855.322   -4.8692E-24
  53855.389   -9.5657E-24
  53855.456   -5.0582E-24
  53855.524   -8.6059E-24
  53855.591   -6.3994E-24
  53855.658    4.3013E-25
  53855.726    1.4914E-24
  53855.793   -9.1608E-25
  53855.860   -4.4736E-24
  53855.928   -5.7213E-24
  53855.995   -5.8158E-24
  53856.062   -3.6043E-24
  53856.130   -9.4590E-24
  53856.197   -2.3291E-23
  53856.264   -4.3765E-23
  53856.331   -5.1708E-23
  53856.399   -4.9563E-23
  53856.466   -3.9537E-23
  53856.533   -2.2620E-23
  53856.601   -2.0435E-23
  53856.668   -2.0528E-23
  53856.735   -9.1598E-24
  53856.803    1.1335E-24
  53856.870    4.5200E-24
  53856.937    1.3736E-23
  53857.004    1.8323E-23
  53857.072    1.8228E-23
  53857.139    1.9305E-23
  53857.206    1.6861E-23
  53857.274    4.7060E-25
  53857.341   -1.1162E-23
  53857.408   -2.1570E-23
  53857.476   -3.3045E-23
  53857.543   -3.3139E-23
  53857.610   -2.7552E-23
  53857.678   -2.4237E-23
  53857.745   -1.8613E-23
  53857.812   -1.0675E-23
  53857.879   -3.8512E-24
  53857.947   -1.6340E-24
  53858.014    2.9046E-24
  53858.081    5.1411E-24
  53858.149    6.2063E-24
  53858.216    2.6229E-24
  53858.283    3.6894E-24
  53858.351   -6.8243E-24
  53858.418   -1.0377E-23
  53858.485   -7.0133E-24
  53858.553   -9.4150E-24
  53858.620   -1.2962E-23
  53858.687   -1.4205E-23
  53858.755   -1.8890E-23
  53858.822   -2.3562E-23
  53858.889   -2.3656E-23
  53858.956   -1.2284E-23
  53859.024   -5.4619E-24
  53859.091    4.8826E-24
  53859.158    3.6191E-24
  53859.226   -5.7456E-24
  53859.293   -1.3909E-23
  53859.360   -1.9741E-23
  53859.428   -1.4098E-23
  53859.495   -6.1248E-24
  53859.562   -1.5943E-24
  53859.630    9.9510E-24
  53859.697    1.3358E-23
  53859.764    1.2094E-23
  53859.832    1.5093E-24
  53859.899   -1.1308E-23
  53859.966   -1.3706E-23
  53860.034   -1.6100E-23
  53860.101   -1.8491E-23
  53860.168   -2.2022E-23
  53860.235   -3.4653E-23
  53860.303   -4.9448E-23
  53860.370   -4.8411E-23
  53860.437   -3.4945E-23
  53860.505   -2.1351E-23
  53860.572   -2.1446E-23
  53860.639   -2.0394E-23
  53860.707   -2.2781E-23
  53860.774   -1.5992E-23
  53860.841   -3.3879E-24
  53860.909    2.3174E-24
  53860.976    1.0639E-24
  53861.043    9.7042E-25
  53861.111    5.5357E-24
  53861.178    1.3622E-23
  53861.245    2.1749E-23
  53861.313    2.2834E-23
  53861.380    1.3331E-23
  53861.447    2.7270E-24
  53861.515   -1.1276E-23
  53861.582   -2.7441E-23
  53861.649   -4.1185E-23
  53861.717   -5.5929E-23
  53861.784   -5.2653E-23
  53861.851   -4.2596E-23
  53861.919   -3.2481E-23
  53861.986   -2.2290E-23
  53862.053   -2.4674E-23
  53862.121   -3.0483E-23
  53862.188   -3.3996E-23
  53862.255   -2.3814E-23
  53862.322   -7.7892E-24
  53862.390    8.4021E-24
  53862.457    1.2989E-23
  53862.524    4.7051E-24
  53862.592   -5.8526E-24
  53862.659   -1.0576E-23
  53862.726   -2.3660E-25
  53862.794    7.8287E-24
  53862.861    1.9052E-24
  53862.928    6.4171E-25
  53862.996    1.1057E-23
  53863.063    1.5664E-23
  53863.130    1.0870E-23
  53863.198   -4.3847E-24
  53863.265   -1.0272E-23
  53863.332   -1.4986E-23
  53863.400   -1.2773E-23
  53863.467   -1.2799E-24
  53863.534    2.1266E-24
  53863.602   -1.4681E-24
  53863.669   -1.1997E-23
  53863.736   -1.5554E-23
  53863.804   -1.9105E-23
  53863.871   -1.8048E-23
  53863.938   -1.1220E-23
  53864.006   -1.3626E-23
  53864.073   -1.2565E-23
  53864.140   -1.7275E-23
  53864.208   -1.3910E-23
  53864.275    2.2434E-24
  53864.342    9.1699E-24
  53864.410    1.4945E-23
  53864.477    8.9817E-24
  53864.544   -1.3228E-23
  53864.612   -2.4837E-23
  53864.679   -2.0336E-23
  53864.746   -1.5822E-23
  53864.814   -1.5917E-23
  53864.881   -1.7165E-23
  53864.948   -2.5310E-23
  53865.016   -3.2270E-23
  53865.083   -3.4653E-23
  53865.150   -3.1317E-23
  53865.218   -2.4542E-23
  53865.285   -1.5425E-23
  53865.352   -5.0886E-24
  53865.420   -4.0233E-24
  53865.487   -1.1084E-23
  53865.554   -1.6958E-23
  53865.622   -1.5900E-23
  53865.689   -6.7285E-24
  53865.756    1.3280E-24
  53865.824    7.0833E-24
  53865.891    3.4798E-24
  53865.958    1.0463E-24
  53866.026   -1.0683E-23
  53866.093   -2.5773E-23
  53866.160   -2.9307E-23
  53866.228   -2.1364E-23
  53866.295   -6.4236E-24
  53866.362    5.1529E-24
  53866.430    9.7482E-24
  53866.497    3.7947E-24
  53866.564   -9.7874E-25
  53866.632   -1.0735E-24
  53866.699    1.1730E-24
  53866.767    8.0983E-24
  53866.834    1.2705E-23
  53866.901    3.2214E-24
  53866.969   -1.2010E-23
  53867.036   -1.7889E-23
  53867.103   -1.6828E-23
  53867.171   -1.9233E-23
  53867.238   -1.3548E-23
  53867.305   -7.8420E-24
  53867.373   -6.7768E-24
  53867.440   -1.0402E-24
  53867.507    7.0563E-24
  53867.575    1.0492E-23
  53867.642    6.8681E-24
  53867.709   -1.4154E-24
  53867.777   -3.8501E-24
  53867.844    4.2364E-24
  53867.911    1.3553E-23
  53867.979    1.6998E-23
  53868.046    2.0455E-23
  53868.113    1.5621E-23
  53868.181    4.9365E-24
  53868.248   -5.6770E-24
  53868.315   -1.6220E-23
  53868.383   -1.6316E-23
  53868.450   -7.1287E-24
  53868.517    9.4782E-25
  53868.585    6.7131E-24
  53868.652    1.2510E-23
  53868.720    8.8749E-24
  53868.787    6.4314E-24
  53868.854    6.3379E-24
  53868.922    3.8932E-24
  53868.989    2.6297E-24
  53869.056    2.5362E-24
  53869.124    8.3115E-24
  53869.191    8.0140E-27
  53869.258   -1.5231E-23
  53869.326   -3.2616E-23
  53869.393   -3.5004E-23
  53869.460   -2.0144E-23
  53869.528    1.0098E-23
  53869.595    2.5395E-23
  53869.662    2.5301E-23
  53869.730    1.3346E-23
  53869.797   -8.4706E-25
  53869.865   -2.1870E-23
  53869.932   -2.8877E-23
  53869.999   -3.0121E-23
  53870.067   -3.0215E-23
  53870.134   -2.6860E-23
  53870.201   -2.3496E-23
  53870.269   -2.0126E-23
  53870.336   -1.5589E-23
  53870.403   -1.9158E-23
  53870.471   -2.6182E-23
  53870.538   -2.9729E-23
  53870.605   -2.5218E-23
  53870.673   -2.1851E-23
  53870.740   -2.4255E-23
  53870.807   -1.6252E-23
  53870.875    3.4997E-24
  53870.942    3.4063E-24
  53871.010   -1.5378E-23
  53871.077   -1.7790E-23
  53871.144   -1.6725E-23
  53871.212   -1.3340E-23
  53871.279   -6.4436E-24
  53871.346   -7.7071E-24
  53871.414   -7.8018E-24
  53871.481   -5.5553E-24
  53871.548    1.3712E-24
  53871.616    1.2765E-24
  53871.683    3.5330E-24
  53871.750   -1.2505E-24
  53871.818   -1.4185E-23
  53871.885   -2.4712E-23
  53871.953   -3.5165E-23
  53872.020   -4.6687E-23
  53872.087   -4.7920E-23
  53872.155   -3.5450E-23
  53872.222   -1.7079E-23
  53872.289   -5.5221E-24
  53872.357   -6.7868E-24
  53872.424   -8.0503E-24
  53872.491   -1.6304E-23
  53872.559   -1.7559E-23
  53872.626   -2.9214E-23
  53872.694   -4.1937E-23
  53872.761   -4.3170E-23
  53872.828   -3.4101E-23
  53872.896   -2.6133E-23
  53872.963   -1.9285E-23
  53873.030   -4.2254E-24
  53873.098    3.6989E-25
  53873.165    2.7641E-25
  53873.232   -4.5071E-24
  53873.300   -1.5112E-23
  53873.367   -3.0257E-23
  53873.435   -4.8680E-23
  53873.502   -5.8993E-23
  53873.569   -6.4727E-23
  53873.637   -6.3702E-23
  53873.704   -6.6045E-23
  53873.771   -6.8399E-23
  53873.839   -5.1523E-23
  53873.906   -4.1347E-23
  53873.973   -4.3730E-23
  53874.041   -5.0675E-23
  53874.108   -5.6449E-23
  53874.176   -5.0863E-23
  53874.243   -5.4367E-23
  53874.310   -6.5770E-23
  53874.378   -6.6995E-23
  53874.445   -5.5788E-23
  53874.512   -5.2472E-23
  53874.580   -4.0009E-23
  53874.647   -2.5129E-23
  53874.715   -2.4068E-23
  53874.782   -2.4161E-23
  53874.849   -3.0036E-23
  53874.917   -3.4741E-23
  53874.984   -2.9072E-23
  53875.051   -2.2223E-23
  53875.119   -1.9998E-23
  53875.186   -2.4730E-23
  53875.254   -2.0186E-23
  53875.321   -1.7960E-23
  53875.388   -1.9213E-23
  53875.456   -2.7424E-23
  53875.523   -3.5594E-23
  53875.590   -3.4536E-23
  53875.658   -3.3481E-23
  53875.725   -4.0472E-23
  53875.792   -3.5972E-23
  53875.860   -2.6837E-23
  53875.927   -1.5315E-23
  53875.995   -1.7977E-25
  53876.062    5.6267E-24
  53876.129   -3.6673E-25
  53876.197   -7.5115E-24
  53876.264   -1.4625E-23
  53876.331   -1.4718E-23
  53876.399   -3.1032E-24
  53876.466   -8.4664E-25
  53876.534    1.4186E-24
  53876.601   -1.0348E-24
  53876.668   -1.6358E-23
  53876.736   -3.1537E-23
  53876.803   -3.1632E-23
  53876.871   -2.4783E-23
  53876.938   -1.3235E-23
  53877.005    4.2918E-24
  53877.073    1.6067E-23
  53877.140    1.8354E-23
  53877.207    9.9301E-24
  53877.275   -1.0205E-23
  53877.342   -1.9638E-23
  53877.410   -1.6233E-23
  53877.477   -9.3163E-24
  53877.544   -8.2398E-24
  53877.612   -9.5046E-24
  53877.679   -9.5980E-24
  53877.746   -5.0015E-24
  53877.814   -5.0962E-24
  53877.881   -1.1050E-23
  53877.949   -1.4654E-23
  53878.016   -1.1248E-23
  53878.083   -5.4714E-24
  53878.151   -7.9161E-24
  53878.218   -1.0360E-23
  53878.286   -1.2794E-23
  53878.353   -2.5708E-23
  53878.420   -3.8518E-23
  53878.488   -3.5156E-23
  53878.555   -4.1010E-23
  53878.622   -4.6843E-23
  53878.690   -4.1200E-23
  53878.757   -3.0912E-23
  53878.825   -2.6372E-23
  53878.892   -2.9944E-23
  53878.959   -2.8880E-23
  53879.027   -2.7817E-23
  53879.094   -3.8315E-23
  53879.162   -3.9563E-23
  53879.229   -4.3107E-23
  53879.296   -5.9203E-23
  53879.364   -6.3838E-23
  53879.431   -5.2551E-23
  53879.498   -4.6925E-23
  53879.566   -4.3581E-23
  53879.633   -3.9074E-23
  53879.701   -2.9924E-23
  53879.768   -2.1881E-23
  53879.835   -2.0814E-23
  53879.903   -2.3239E-23
  53879.970   -2.6823E-23
  53880.038   -3.0398E-23
  53880.105   -3.3966E-23
  53880.172   -2.9427E-23
  53880.240   -3.4156E-23
  53880.307   -4.0022E-23
  53880.374   -4.5867E-23
  53880.442   -5.1691E-23
  53880.509   -5.0644E-23
  53880.577   -5.0739E-23
  53880.644   -5.4262E-23
  53880.711   -5.0926E-23
  53880.779   -4.8731E-23
  53880.846   -3.8474E-23
  53880.914   -2.3499E-23
  53880.981   -1.6582E-23
  53881.048   -2.2516E-23
  53881.116   -3.3074E-23
  53881.183   -4.7005E-23
  53881.251   -4.9399E-23
  53881.318   -4.6046E-23
  53881.385   -4.9586E-23
  53881.453   -4.2786E-23
  53881.520   -3.0164E-23
  53881.588   -3.2580E-23
  53881.655   -3.2674E-23
  53881.722   -3.3927E-23
  53881.790   -3.9802E-23
  53881.857   -4.5656E-23
  53881.925   -4.2299E-23
  53881.992   -4.5845E-23
  53882.059   -5.6256E-23
  53882.127   -6.2050E-23
  53882.194   -4.6130E-23
  53882.262   -3.1208E-23
  53882.329   -2.0822E-23
  53882.396   -1.9745E-23
  53882.464   -2.5680E-23
  53882.531   -3.1587E-23
  53882.599   -2.5868E-23
  53882.666   -2.3632E-23
  53882.733   -2.4895E-23
  53882.801   -2.2650E-23
  53882.868   -2.1584E-23
  53882.936   -1.9338E-23
  53883.003   -1.8262E-23
  53883.070   -1.9525E-23
  53883.138   -2.5460E-23
  53883.205   -3.6013E-23
  53883.273   -4.0735E-23
  53883.340   -4.4290E-23
  53883.407   -5.7005E-23
  53883.475   -7.4150E-23
  53883.542   -8.6633E-23
  53883.610   -8.2238E-23
  53883.677   -7.6702E-23
  53883.744   -6.7735E-23
  53883.812   -6.3280E-23
  53883.879   -5.7673E-23
  53883.947   -4.5143E-23
  53884.014   -4.4085E-23
  53884.081   -3.4928E-23
  53884.149   -3.3864E-23
  53884.216   -3.3957E-23
  53884.284   -2.7078E-23
  53884.351   -2.9501E-23
  53884.418   -3.1915E-23
  53884.486   -2.9690E-23
  53884.553   -2.6283E-23
  53884.621   -1.8188E-23
  53884.688   -1.1231E-23
  53884.755   -4.2447E-24
  53884.823   -7.8946E-25
  53884.890   -6.8029E-24
  53884.958   -1.5148E-23
  53885.025   -2.4611E-23
  53885.092   -3.4029E-23
  53885.160   -4.4544E-23
  53885.227   -4.9247E-23
  53885.295   -5.7378E-23
  53885.362   -5.7471E-23
  53885.429   -4.2614E-23
  53885.497   -2.5279E-23
  53885.564   -6.5627E-24
  53885.632   -4.2975E-24
  53885.699   -6.7510E-24
  53885.767   -8.0357E-24
  53885.834   -1.2849E-23
  53885.901   -2.9353E-23
  53885.969   -4.6836E-23
  53886.036   -5.6131E-23
  53886.104   -6.1946E-23
  53886.171   -4.9425E-23
  53886.238   -4.0281E-23
  53886.306   -2.7587E-23
  53886.373   -1.8311E-23
  53886.441   -2.4265E-23
  53886.508   -4.0661E-23
  53886.575   -5.3443E-23
  53886.643   -6.0417E-23
  53886.710   -5.2484E-23
  53886.778   -3.6401E-23
  53886.845   -2.1319E-23
  53886.913   -2.0244E-23
  53886.980   -2.2687E-23
  53887.047   -2.0431E-23
  53887.115   -2.1705E-23
  53887.182   -2.5309E-23
  53887.250   -2.4234E-23
  53887.317   -2.5497E-23
  53887.384   -2.9100E-23
  53887.452   -3.2695E-23
  53887.519   -3.6279E-23
  53887.587   -3.7539E-23
  53887.654   -3.9956E-23
  53887.722   -4.0051E-23
  53887.789   -4.3621E-23
  53887.856   -3.9080E-23
  53887.924   -3.6853E-23
  53887.991   -4.0430E-23
  53888.059   -3.4712E-23
  53888.126   -3.7135E-23
  53888.193   -3.9553E-23
  53888.261   -4.0809E-23
  53888.328   -2.1057E-23
  53888.396   -8.1814E-24
  53888.463    3.5102E-26
  53888.531    5.9004E-24
  53888.598   -4.9131E-24
  53888.665   -1.3287E-23
  53888.733   -1.5751E-23
  53888.800   -2.2895E-23
  53888.868   -3.0020E-23
  53888.935   -2.3093E-23
  53889.002   -1.3766E-23
  53889.070   -1.2681E-23
  53889.137   -1.7495E-23
  53889.205   -2.2299E-23
  53889.272   -2.3563E-23
  53889.340   -3.3018E-23
  53889.407   -4.2422E-23
  53889.474   -4.3676E-23
  53889.542   -3.6799E-23
  53889.609   -3.2233E-23
  53889.677   -2.2958E-23
  53889.744   -2.4231E-23
  53889.812   -3.3686E-23
  53889.879   -4.0765E-23
  53889.946   -4.4340E-23
  53890.014   -4.7908E-23
  53890.081   -5.3775E-23
  53890.149   -5.3871E-23
  53890.216   -5.2812E-23
  53890.284   -4.9445E-23
  53890.351   -4.8383E-23
  53890.418   -4.5004E-23
  53890.486   -4.3941E-23
  53890.553   -4.1713E-23
  53890.621   -3.0154E-23
  53890.688   -2.3207E-23
  53890.756   -1.8592E-23
  53890.823   -1.5145E-23
  53890.890   -1.6419E-23
  53890.958   -2.0054E-23
  53891.025   -2.8377E-23
  53891.093   -2.4952E-23
  53891.160   -1.4435E-23
  53891.228   -5.0501E-24
  53891.295   -3.9536E-24
  53891.362   -4.6705E-25
  53891.430    5.4182E-24
  53891.497    2.9247E-24
  53891.565   -1.0270E-23
  53891.632   -2.3363E-23
  53891.700   -2.4628E-23
  53891.767   -3.0592E-23
  53891.834   -2.2465E-23
  53891.902   -1.9030E-23
  53891.969   -2.7363E-23
  53892.037   -2.8628E-23
  53892.104   -2.8722E-23
  53892.172   -3.5836E-23
  53892.239   -4.9883E-23
  53892.306   -5.4599E-23
  53892.374   -5.3541E-23
  53892.441   -3.8551E-23
  53892.509   -1.2786E-23
  53892.576    1.2210E-23
  53892.644    1.9356E-23
  53892.711    1.6842E-23
  53892.778    2.4019E-23
  53892.846    2.1494E-23
  53892.913    1.7770E-23
  53892.981    1.7676E-23
  53893.048    2.1212E-23
  53893.116    1.8697E-23
  53893.183    6.5440E-24
  53893.250    1.6605E-24
  53893.318    5.1558E-24
  53893.385    9.8723E-24
  53893.453    2.1858E-23
  53893.520    2.9054E-23
  53893.588    3.1399E-23
  53893.655    2.5216E-23
  53893.723    2.2691E-23
  53893.790    2.6238E-23
  53893.857    4.0814E-23
  53893.925    4.5669E-23
  53893.992    4.3076E-23
  53894.060    3.9301E-23
  53894.127    2.6978E-23
  53894.195    2.3233E-23
  53894.262    1.3460E-23
  53894.330    7.3348E-24
  53894.397    1.2413E-24
  53894.464   -1.1972E-23
  53894.532   -1.6817E-23
  53894.599   -1.4540E-23
  53894.667   -1.3445E-23
  53894.734   -1.2359E-23
  53894.802   -5.3033E-24
  53894.869   -3.0168E-24
  53894.936   -1.1450E-23
  53895.004   -2.1035E-23
  53895.071   -2.5848E-23
  53895.139   -3.0643E-23
  53895.206   -2.7217E-23
  53895.274   -2.4951E-23
  53895.341   -1.7955E-23
  53895.409   -8.5496E-24
  53895.476   -3.8631E-24
  53895.543    5.6334E-24
  53895.611    1.1559E-23
  53895.678    7.8452E-24
  53895.746    1.7405E-24
  53895.813    1.6470E-24
  53895.881    1.5523E-24
  53895.948   -4.5312E-24
  53896.016    1.6406E-25
  53896.083    1.0891E-23
  53896.150    1.5637E-23
  53896.218    1.0702E-23
  53896.285    2.1789E-24
  53896.353   -9.8758E-24
  53896.420   -1.8289E-23
  53896.488   -2.5484E-23
  53896.555   -2.7928E-23
  53896.623   -3.1562E-23
  53896.690   -3.6346E-23
  53896.758   -3.7610E-23
  53896.825   -4.0054E-23
  53896.892   -4.0147E-23
  53896.960   -3.9072E-23
  53897.027   -4.0336E-23
  53897.095   -3.6920E-23
  53897.162   -1.6964E-23
  53897.230   -3.9486E-24
  53897.297    5.5679E-24
  53897.365    1.6353E-23
  53897.432    1.7470E-23
  53897.499    7.6962E-24
  53897.567    6.3915E-24
  53897.634    1.1128E-23
  53897.702    9.8233E-24
  53897.769    1.2150E-23
  53897.837    1.8115E-23
  53897.904    2.5322E-23
  53897.972    3.3787E-23
  53898.039    4.6043E-23
  53898.107    5.5859E-23
  53898.174    6.0775E-23
  53898.241    5.5692E-23
  53898.309    5.5607E-23
  53898.376    5.0524E-23
  53898.444    4.7939E-23
  53898.511    5.4055E-23
  53898.579    6.0171E-23
  53898.646    6.1287E-23
  53898.714    6.5002E-23
  53898.781    7.3719E-23
  53898.849    9.0034E-23
  53898.916    1.0405E-22
  53898.983    1.2197E-22
  53899.051    1.4548E-22
  53899.118    1.6260E-22
  53899.186    1.7321E-22
  53899.253    1.8123E-22
  53899.321    1.9605E-22
  53899.388    2.0686E-22
  53899.456    2.1638E-22
  53899.523    2.3019E-22
  53899.591    2.5111E-22
  53899.658    2.8233E-22
  53899.726    3.1274E-22
  53899.793    3.2446E-22
  53899.860    3.2887E-22
  53899.928    3.2579E-22
  53899.995    3.2421E-22
  53900.063    3.1962E-22
  53900.130    3.1074E-22
  53900.198    3.0775E-22
  53900.265    3.1057E-22
  53900.333    3.1049E-22
  53900.400    3.1620E-22
  53900.468    3.2502E-22
  53900.535    3.2193E-22
  53900.603    3.1445E-22
  53900.670    2.9687E-22
  53900.737    2.6938E-22
  53900.805    2.5500E-22
  53900.872    2.5491E-22
  53900.940    2.4493E-22
  53901.007    2.3225E-22
  53901.075    2.1546E-22
  53901.142    2.0168E-22
  53901.210    1.8929E-22
  53901.277    1.7561E-22
  53901.345    1.6342E-22
  53901.412    1.6204E-22
  53901.480    1.6726E-22
  53901.547    1.6047E-22
